#Angle around the z x y axes.
#timestamp(ns), Azimuth , Pitch, Roll (degrees)
#Datetime: 29/04/2015 14:48:14
##########################################
#Activity: 11 - FKL - Front-knees-lying - 10s
#Subject ID: 46
#First Name: sub46
#Last Name: sub46
#Age: 23
#Height(cm): 175
#Weight(kg): 68
#Gender: Female
##########################################

@DATA
1979655196000, 187.41751, 168.17107, 39.132477
1979660209000, 188.4424, 167.1444, 35.866352
1979665198000, 187.2703, 167.91379, 39.60225
1979670205000, 187.31927, 168.44955, 38.896606
1979675227000, 187.15727, 168.19966, 39.376015
1979680226000, 186.97458, 168.91838, 39.857887
1979685198000, 186.76, 169.64934, 40.332085
1979690224000, 186.52412, 170.38121, 40.803173
1979695200000, 186.26492, 171.11978, 41.272816
1979700196000, 185.9813, 171.86377, 41.739494
1979705110000, 185.66713, 172.61562, 42.181004
1979710110000, 185.34361, 173.35423, 42.662018
1979715138000, 184.98395, 174.1379, 43.09226
1979720101000, 184.6066, 174.88712, 43.539177
1979725077000, 184.2079, 175.66165, 43.973633
1979730124000, 183.78586, 176.43623, 44.390656
1979735101000, 183.34367, 177.21391, 44.794342
1979740098000, 182.8794, 177.9929, 45.177357
1979745110000, 182.38904, 178.7693, 45.53287
1979750173000, 181.88434, 179.53276, 45.862682
1979755138000, 181.34949, -179.70624, 46.161755
1979760115000, 180.7938, -178.96292, 46.434822
1979765183000, 180.21603, -178.23738, 46.680603
1979770150000, 179.59578, -177.51459, 46.863205
1979775138000, 178.96437, -176.85326, 47.02569
1979780140000, 178.30748, -176.20087, 47.184937
1979785137000, 177.63373, -175.53487, 47.295067
1979790147000, 176.94017, -174.91551, 47.395687
1979795112000, 176.2475, -174.29471, 47.49645
1979800145000, 175.58067, -173.70052, 47.67042
1979805138000, 174.89555, -173.09459, 47.838314
1979810108000, 174.21687, -172.49278, 47.998795
1979815177000, 173.53374, -171.88876, 48.14832
1979820149000, 172.83755, -171.28627, 48.298405
1979825139000, 172.13855, -170.68098, 48.44085
1979830203000, 171.44878, -170.07985, 48.575253
1979835148000, 170.73816, -169.47758, 48.703354
1979840642000, 170.0179, -168.871, 48.82886
1979845304000, 169.31102, -168.27176, 48.943012
1979850226000, 168.58267, -167.67003, 49.052547
1979855214000, 167.86551, -167.0723, 49.15329
1979860212000, 167.14806, -166.48483, 49.244923
1979865264000, 166.42635, -165.89581, 49.325493
1979870231000, 165.7254, -165.324, 49.404095
1979875217000, 165.0298, -164.76025, 49.46902
1979880242000, 164.34233, -164.20813, 49.52392
1979885228000, 163.672, -163.66931, 49.567745
1979890207000, 163.01154, -163.14258, 49.600468
1979895197000, 162.37221, -162.63199, 49.61992
1979900191000, 161.75111, -162.14415, 49.628357
1979905192000, 161.14537, -161.66801, 49.616543
1979910995000, 160.57216, -161.2166, 49.60383
1979915191000, 160.00601, -160.79509, 49.575943
1979920194000, 159.48045, -160.38287, 49.539703
1979925190000, 158.958, -160.00069, 49.498905
1979930188000, 158.46419, -159.63336, 49.453503
1979935156000, 157.97974, -159.28221, 49.41028
1979940192000, 157.50023, -158.93703, 49.36465
1979945166000, 157.02913, -158.60109, 49.324654
1979950194000, 156.54933, -158.26239, 49.28943
1979955186000, 156.07205, -157.92531, 49.256092
1979960237000, 155.57242, -157.57687, 49.23002
1979965308000, 155.06398, -157.21664, 49.199306
1979970267000, 154.542, -156.84799, 49.174904
1979975200000, 154.00177, -156.46408, 49.144535
1979980224000, 153.45398, -156.0659, 49.107826
1979985228000, 152.8978, -155.65598, 49.067722
1979990168000, 152.3417, -155.23972, 49.018776
1979995168000, 151.7972, -154.81573, 48.960186
1980000183000, 151.16792, -154.34746, 48.926407
1980005199000, 150.55496, -153.88016, 48.87799
1980010167000, 149.95099, -153.40295, 48.82085
1980015251000, 149.3568, -152.92372, 48.753593
1980020244000, 148.77597, -152.43863, 48.674107
1980025193000, 148.20262, -151.95435, 48.591873
1980030195000, 147.64323, -151.47078, 48.50324
1980035208000, 147.09595, -150.99074, 48.41267
1980040250000, 146.5664, -150.5185, 48.31603
1980045224000, 146.05205, -150.06085, 48.221527
1980050207000, 145.56068, -149.61482, 48.12305
1980055196000, 145.08006, -149.18694, 48.026955
1980060198000, 144.6216, -148.7767, 47.932938
1980065241000, 144.17564, -148.38226, 47.835335
1980070196000, 143.74527, -148.00467, 47.740948
1980075194000, 143.31992, -147.64226, 47.648376
1980080212000, 142.90475, -147.2903, 47.551636
1980085196000, 142.48831, -146.94618, 47.453587
1980090189000, 142.07266, -146.61108, 47.357315
1980095166000, 141.65329, -146.27887, 47.257454
1980100220000, 141.22998, -145.95178, 47.15702
1980105225000, 140.80981, -145.62889, 47.055504
1980110170000, 140.39369, -145.31052, 46.950993
1980115247000, 139.99782, -145.00427, 46.84591
1980120268000, 139.62247, -144.70602, 46.73546
1980125197000, 139.26886, -144.41782, 46.622757
1980130194000, 138.94826, -144.14392, 46.508904
1980135198000, 138.65276, -143.88054, 46.391483
1980140189000, 138.37863, -143.627, 46.275723
1980145185000, 138.12292, -143.38123, 46.159584
1980150197000, 137.88255, -143.1424, 46.046623
1980155191000, 137.64192, -142.90544, 45.93544
1980160169000, 137.41138, -142.67278, 45.827576
1980166140000, 137.1764, -142.43744, 45.719425
1980170224000, 136.93246, -142.2034, 45.616364
1980175196000, 136.68129, -141.96388, 45.511967
1980180215000, 136.41205, -141.7223, 45.41113
1980185198000, 136.13065, -141.48059, 45.315926
1980191405000, 135.82875, -141.23714, 45.220318
1980195194000, 135.52559, -140.9931, 45.129673
1980200197000, 135.23854, -140.80505, 45.081406
1980205194000, 134.95844, -140.62213, 45.035957
1980210168000, 134.67699, -140.43608, 44.985847
1980215216000, 134.39873, -140.25607, 44.93826
1980220227000, 134.11868, -140.07333, 44.88607
1980225194000, 133.84526, -139.89252, 44.831444
1980230220000, 133.5712, -139.71107, 44.773468
1980235230000, 133.29837, -139.53111, 44.71129
1980240189000, 133.03328, -139.35365, 44.648804
1980245185000, 132.76642, -139.17572, 44.58152
1980250191000, 132.52136, -139.00694, 44.51422
1980255194000, 132.2725, -138.83813, 44.44775
1980260193000, 132.06049, -138.67982, 44.373917
1980265241000, 131.86412, -138.5184, 44.296318
1980270289000, 131.67494, -138.37115, 44.227646
1980275194000, 131.51337, -138.23566, 44.15662
1980280205000, 131.37933, -138.10497, 44.08257
1980285198000, 131.26993, -137.97975, 44.0065
1980290185000, 131.16296, -137.8631, 43.93681
1980295159000, 131.08015, -137.75626, 43.867954
1980300199000, 130.99455, -137.64986, 43.801544
1980305189000, 130.90262, -137.55368, 43.74443
1980310169000, 130.83093, -137.45538, 43.681084
1980315248000, 130.73564, -137.35567, 43.62498
1980320194000, 130.64383, -137.26836, 43.57794
1980325196000, 130.55374, -137.17421, 43.525368
1980330190000, 130.45776, -137.08275, 43.47639
1980335228000, 130.39479, -136.98619, 43.415546
1980340191000, 130.30519, -136.8843, 43.362175
1980345175000, 130.22536, -136.79095, 43.30984
1980350188000, 130.16238, -136.6888, 43.248158
1980355195000, 130.10266, -136.58316, 43.182186
1980360196000, 130.04617, -136.47742, 43.11797
1980365242000, 130.00276, -136.37384, 43.05073
1980370195000, 129.96257, -136.268, 42.980022
1980375185000, 129.93056, -136.16557, 42.90976
1980380209000, 129.90656, -136.06299, 42.838806
1980385232000, 129.88016, -135.96553, 42.77102
1980390444000, 129.8603, -135.87146, 42.706062
1980395189000, 129.8412, -135.78378, 42.647625
1980400202000, 129.79439, -135.67566, 42.578083
1980405228000, 129.74826, -135.57693, 42.51908
1980410198000, 129.69653, -135.48227, 42.46495
1980415234000, 129.64339, -135.38806, 42.412186
1980420193000, 129.58565, -135.30334, 42.370216
1980425195000, 129.5256, -135.21825, 42.327694
1980430191000, 129.46294, -135.1386, 42.293182
1980435196000, 129.39993, -135.06271, 42.261658
1980440191000, 129.33992, -134.99101, 42.23182
1980445252000, 129.27975, -134.92096, 42.205666
1980450308000, 129.22412, -134.8566, 42.181915
1980455255000, 129.16603, -134.79393, 42.15964
1980460168000, 129.10973, -134.73483, 42.139824
1980465243000, 129.04802, -134.6786, 42.1222
1980470223000, 128.98785, -134.62556, 42.10726
1980475189000, 128.91623, -134.57187, 42.091324
1980480197000, 128.84383, -134.52618, 42.08328
1980485197000, 128.76323, -134.47528, 42.070076
1980490192000, 128.6843, -134.4332, 42.064087
1980495201000, 128.6001, -134.38516, 42.05312
1980500186000, 128.51645, -134.34515, 42.048626
1980505195000, 128.4392, -134.30215, 42.038963
1980510194000, 128.36354, -134.26279, 42.031757
1980515212000, 128.29909, -134.21973, 42.0179
1980520193000, 128.23553, -134.17801, 42.004566
1980525197000, 128.19559, -134.13591, 41.984303
1980535199000, 128.16461, -134.07964, 41.947388
1980540192000, 128.14146, -134.02783, 41.91389
1980545194000, 128.14325, -133.96696, 41.86539
1980550194000, 128.1548, -133.89679, 41.803898
1980555195000, 128.18365, -133.8255, 41.740246
1980560808000, 128.22733, -133.74712, 41.664566
1980565246000, 128.28294, -133.6668, 41.58476
1980570217000, 128.35541, -133.57925, 41.495815
1980575199000, 128.43977, -133.49385, 41.40464
1980580186000, 128.53062, -133.39957, 41.30426
1980585196000, 128.63545, -133.30632, 41.200974
1980590524000, 128.73807, -133.21208, 41.09743
1980595192000, 128.8433, -133.11887, 40.992172
1980600169000, 128.95998, -132.95357, 40.811924
1980605187000, 129.06776, -132.79631, 40.6395
1980610164000, 129.16528, -132.64363, 40.47355
1980615214000, 129.25726, -132.49593, 40.31332
1980620194000, 129.33438, -132.3544, 40.160995
1980625208000, 129.40094, -132.22331, 40.021713
1980630248000, 129.46278, -132.09808, 39.889183
1980635227000, 129.51222, -131.98157, 39.76785
1980640184000, 129.55708, -131.87662, 39.65923
1980645178000, 129.598, -131.77458, 39.555515
1980650219000, 129.642, -131.68814, 39.467113
1980655198000, 129.6824, -131.60567, 39.38384
1980660166000, 129.7264, -131.5354, 39.314156
1980665257000, 129.77287, -131.46725, 39.24808
1980670263000, 129.82161, -131.40771, 39.191525
1980675194000, 129.86963, -131.35422, 39.144176
1980680201000, 129.922, -131.30261, 39.101696
1980685164000, 129.97408, -131.25317, 39.063816
1980690188000, 130.02975, -131.20532, 39.030174
1980695194000, 130.09015, -131.15761, 38.996784
1980700201000, 130.15744, -131.10828, 38.96359
1980705212000, 130.227, -131.05487, 38.925415
1980710203000, 130.30484, -130.99536, 38.88061
1980715211000, 130.38754, -130.93181, 38.829052
1980720235000, 130.47336, -130.86081, 38.769608
1980725214000, 130.56747, -130.78642, 38.703568
1980730279000, 130.66219, -130.7053, 38.62845
1980735214000, 130.76517, -130.62447, 38.549595
1980740217000, 130.86708, -130.5387, 38.46475
1980745160000, 130.97955, -130.45238, 38.374386
1980750243000, 131.09402, -130.36792, 38.282616
1980755104000, 131.20758, -130.2827, 38.18727
1980760104000, 131.32607, -130.19653, 38.088474
1980765147000, 131.43939, -130.11179, 37.98925
1980770100000, 131.55043, -130.02744, 37.88788
1980775105000, 131.64755, -129.94287, 37.7891
1980780122000, 131.74245, -129.85791, 37.689754
1980785100000, 131.82602, -129.77328, 37.591812
1980790357000, 131.88501, -129.69037, 37.50325
1980795101000, 131.95613, -129.60472, 37.412155
1980800203000, 132.14442, -129.49612, 37.244465
1980805192000, 132.32893, -129.39044, 37.086292
1980810162000, 132.50168, -129.28331, 36.930565
1980815242000, 132.6667, -129.18396, 36.786972
1980820247000, 132.82243, -129.0865, 36.65088
1980825193000, 132.97171, -128.99013, 36.520294
1980830236000, 133.11938, -128.89975, 36.397903
1980835234000, 133.26181, -128.81166, 36.282734
1980840193000, 133.40234, -128.72499, 36.16866
1980845202000, 133.53871, -128.64453, 36.064514
1980850160000, 133.67104, -128.56277, 35.9592
1980855195000, 133.7995, -128.48293, 35.857395
1980860163000, 133.92752, -128.4051, 35.75589
1980865208000, 134.04079, -128.32645, 35.655216
1980870189000, 134.15663, -128.24484, 35.551155
1980875218000, 134.26468, -128.16656, 35.44825
1980880193000, 134.37004, -128.08405, 35.340904
1980885881000, 134.46959, -128.00275, 35.23217
1980890181000, 134.56529, -127.92032, 35.124012
1980895193000, 134.65756, -127.837906, 35.011475
1980900191000, 134.7458, -127.75308, 34.896805
1980905193000, 134.82733, -127.66891, 34.783524
1980910190000, 134.9048, -127.57852, 34.662113
1980915256000, 134.9814, -127.49469, 34.546486
1980920190000, 135.05806, -127.4032, 34.422733
1980925192000, 135.13344, -127.31377, 34.301308
1980930219000, 135.21039, -127.22609, 34.17864
1980935200000, 135.29306, -127.140656, 34.05904
1980940189000, 135.37366, -127.05607, 33.93995
1980945163000, 135.45253, -126.97258, 33.822403
1980950196000, 135.53973, -126.89424, 33.70868
1980955159000, 135.61893, -126.817764, 33.600643
1980960199000, 135.68991, -126.74354, 33.49661
1980965214000, 135.77495, -126.67427, 33.396233
1980970226000, 135.84833, -126.606316, 33.302513
1980975210000, 135.92189, -126.54556, 33.216797
1980980192000, 135.99698, -126.48726, 33.13504
1980985227000, 136.06297, -126.43501, 33.06093
1980990166000, 136.13762, -126.382614, 32.988014
1980995170000, 136.20123, -126.34073, 32.92464
1981000210000, 136.25613, -126.30243, 32.869263
1981005194000, 136.2307, -126.181015, 32.772808
1981010198000, 136.20111, -126.07001, 32.6856
1981015232000, 136.16151, -125.964836, 32.6082
1981020186000, 136.11942, -125.86364, 32.532093
1981025162000, 136.06824, -125.76929, 32.464645
1981030223000, 136.00629, -125.67998, 32.402298
1981035233000, 135.95055, -125.59187, 32.34062
1981040187000, 135.88005, -125.5103, 32.28715
1981045173000, 135.80757, -125.427155, 32.231514
1981050194000, 135.73386, -125.35071, 32.18219
1981055226000, 135.6576, -125.27262, 32.130577
1981060196000, 135.57266, -125.19348, 32.079502
1981065208000, 135.49544, -125.11984, 32.03087
1981070229000, 135.41624, -125.040474, 31.975088
1981075192000, 135.32875, -124.96414, 31.923674
1981080200000, 135.24623, -124.886635, 31.868452
1981085226000, 135.16904, -124.808235, 31.81219
1981090195000, 135.08885, -124.728294, 31.753082
1981095220000, 135.00307, -124.64572, 31.692978
1981100254000, 134.93065, -124.56462, 31.63227
1981105265000, 134.8536, -124.477295, 31.566502
1981110201000, 134.77943, -124.39087, 31.500877
1981115207000, 134.7138, -124.30251, 31.431662
1981120233000, 134.64674, -124.21498, 31.364357
1981125193000, 134.58372, -124.125885, 31.294786
1981130201000, 134.52562, -124.03843, 31.22474
1981135225000, 134.46643, -123.95419, 31.15867
1981140187000, 134.40642, -123.86786, 31.090027
1981145179000, 134.35504, -123.79084, 31.026651
1981150171000, 134.30106, -123.713745, 30.964731
1981155197000, 134.24777, -123.64078, 30.904366
1981160175000, 134.19803, -123.574875, 30.850813
1981165198000, 134.14577, -123.513115, 30.799982
1981170227000, 134.09734, -123.45698, 30.753237
1981175194000, 134.04565, -123.40343, 30.711079
1981180192000, 133.99487, -123.35745, 30.673712
1981185227000, 133.93944, -123.313675, 30.640232
1981190142000, 133.89082, -123.27479, 30.608147
1981195188000, 133.83444, -123.23387, 30.578924
1981200213000, 133.775, -123.20046, 30.554415
1981205210000, 133.69228, -123.17821, 30.558626
1981210193000, 133.60703, -123.16002, 30.565708
1981215254000, 133.51624, -123.13484, 30.571495
1981220234000, 133.42589, -123.11578, 30.58057
1981225215000, 133.33612, -123.091705, 30.587816
1981230221000, 133.24205, -123.063736, 30.592686
1981235195000, 133.14427, -123.036255, 30.601131
1981240227000, 133.05295, -123.00711, 30.606405
1981245167000, 132.95308, -122.97001, 30.606424
1981250189000, 132.83482, -122.93149, 30.610783
1981255184000, 132.72348, -122.89907, 30.616928
1981260225000, 132.59715, -122.85004, 30.611845
1981265240000, 132.46237, -122.810684, 30.617016
1981270197000, 132.32996, -122.770905, 30.620678
1981275207000, 132.19394, -122.725204, 30.618221
1981281069000, 132.06941, -122.67981, 30.61514
1981285222000, 131.9346, -122.6313, 30.609934
1981290189000, 131.81834, -122.583694, 30.601746
1981295172000, 131.71143, -122.53049, 30.586605
1981300199000, 131.60568, -122.47222, 30.565414
1981305193000, 131.51398, -122.410934, 30.539158
1981310224000, 131.43036, -122.34459, 30.506723
1981315244000, 131.35623, -122.27213, 30.465097
1981320229000, 131.29561, -122.19566, 30.418774
1981325215000, 131.23294, -122.10808, 30.36155
1981330240000, 131.18103, -122.02455, 30.307217
1981335228000, 131.12366, -121.92518, 30.238398
1981340216000, 131.07185, -121.83246, 30.176609
1981345204000, 131.00912, -121.73139, 30.108845
1981350511000, 130.93433, -121.62584, 30.039963
1981355191000, 130.84857, -121.51973, 29.97267
1981360194000, 130.74286, -121.41275, 29.909163
1981365238000, 130.62506, -121.30377, 29.846113
1981370197000, 130.48933, -121.19321, 29.782804
1981375187000, 130.34708, -121.08392, 29.722086
1981380195000, 130.18935, -120.977875, 29.66656
1981385200000, 130.03487, -120.87158, 29.607904
1981390130000, 129.87836, -120.7754, 29.557663
1981395203000, 129.72748, -120.677505, 29.502396
1981400169000, 129.58675, -120.58615, 29.450012
1981405194000, 129.43265, -120.44876, 29.353989
1981410159000, 129.29263, -120.31799, 29.259432
1981415200000, 129.13794, -120.16446, 29.14557
1981420232000, 128.99355, -120.01178, 29.028522
1981425192000, 128.82631, -119.81325, 28.87552
1981430195000, 128.67557, -119.61659, 28.720657
1981435196000, 128.50276, -119.362175, 28.518663
1981440195000, 128.35231, -119.11395, 28.319073
1981445205000, 128.18681, -118.79364, 28.05388
1981450186000, 128.0338, -118.48605, 27.798258
1981455188000, 127.87316, -118.115005, 27.490026
1981460198000, 127.72788, -117.76368, 27.196281
1981465240000, 127.54919, -117.2961, 26.794296
1981470231000, 127.37991, -116.85753, 26.415903
1981475157000, 127.15447, -116.13005, 25.774727
1981480207000, 126.93389, -115.47083, 25.189543
1981485165000, 126.699745, -114.825035, 24.607487
1981490175000, 126.47992, -114.24378, 24.078547
1981495159000, 126.25163, -113.73332, 23.612133
1981500206000, 126.03924, -113.268265, 23.181387
1981505131000, 125.836205, -112.85824, 22.799622
1981510225000, 125.65297, -112.478096, 22.44046
1981515203000, 125.48325, -112.13116, 22.10874
1981520228000, 125.33341, -111.81061, 21.798697
1981525150000, 125.14634, -111.50713, 21.503527
1981530186000, 124.969765, -111.22405, 21.223886
1981535988000, 124.818474, -69.01904, 20.979689
1981540192000, 124.67684, -69.25564, 20.73739
1981545183000, 124.54317, -69.47735, 20.504513
1981550162000, 124.423096, -69.690025, 20.275743
1981555460000, 124.320175, -69.889, 20.056204
1981560230000, 124.22319, -70.08813, 19.83032
1981565417000, 124.13449, -70.29173, 19.594402
1981570231000, 124.06083, -70.47673, 19.37218
1981575435000, 124.00781, -70.659004, 19.152273
1981580196000, 123.96829, -70.82816, 18.941122
1981585336000, 123.94121, -71.01229, 18.716814
1981590190000, 123.926674, -71.17655, 18.511223
1981595183000, 123.9159, -71.35546, 18.296867
1981600168000, 123.91898, -71.51299, 18.104233
1981605182000, 123.92976, -71.65835, 17.92407
1981610191000, 123.95774, -71.77112, 17.807732
1981615233000, 123.98641, -71.87812, 17.697401
1981620233000, 124.0132, -71.96926, 17.619877
1981625198000, 124.03366, -72.05973, 17.543665
1981630194000, 124.04276, -72.13543, 17.498566
1981635199000, 124.04514, -72.201836, 17.463335
1981640195000, 124.04724, -72.246475, 17.464945
1981645213000, 124.03402, -72.278114, 17.477926
1981650195000, 124.049934, -72.24573, 17.562212
1981655197000, 124.0601, -72.19671, 17.659025
1981660192000, 124.10049, -72.05968, 17.84098
1981665220000, 124.151276, -71.8992, 18.039751
1981670191000, 124.22511, -71.65411, 18.313292
1981675188000, 124.31677, -71.3972, 18.589933
1981680166000, 124.40463, -71.059586, 18.937946
1981685165000, 124.51071, -109.3016, 19.301382
1981690162000, 124.62636, -109.68931, 19.68282
1981695172000, 124.71653, -110.08989, 20.069221
1981700231000, 124.836975, -110.58358, 20.546303
1981705091000, 124.93205, -111.091064, 21.033875
1981710089000, 125.02421, -111.61363, 21.532383
1981715102000, 125.14749, -112.147285, 22.037899
1981720090000, 125.319954, -112.62897, 22.48497
1981725100000, 125.63228, -113.1109, 22.921968
1981730110000, 125.94989, -113.45083, 23.210758
1981735100000, 126.04856, -113.6317, 23.363392
1981740372000, 126.66184, -113.762314, 23.476797
1981745106000, 127.221214, -113.88904, 23.522457
1981750109000, 127.33236, -113.98775, 23.632248
1981755098000, 127.54482, -114.053444, 23.743591
1981760080000, 127.61293, -114.20241, 23.914675
1981765146000, 127.47956, -114.52829, 24.187004
1981770078000, 127.005974, -114.8666, 24.458862
1981775079000, 126.73579, -115.75041, 25.164934
1981780113000, 126.75056, -116.79254, 25.891676
1981785112000, 127.02637, -118.00577, 26.809458
1981790078000, 127.52428, -119.37041, 27.783413
1981795103000, 128.17632, -120.475876, 28.746542
1981800078000, 128.88953, -121.59401, 29.696022
1981806447000, 129.31944, -122.36783, 30.458773
1981810152000, 129.54185, -123.132324, 31.235655
1981815211000, 129.61932, -123.87872, 31.961092
1981820159000, 129.5445, -124.618546, 32.71527
1981825121000, 129.42543, -125.26047, 33.30655
1981830161000, 129.28883, -125.8853, 33.911686
1981835189000, 129.19566, -126.471306, 34.495785
1981840183000, 129.20322, -126.99942, 35.02747
1981845156000, 129.31895, -127.44074, 35.462673
1981850259000, 129.55232, -127.8091, 35.813713
1981855169000, 129.96147, -128.10167, 36.021717
1981860229000, 130.46422, -128.30356, 36.1185
1981865232000, 131.06737, -128.48322, 36.12072
1981870207000, 131.75964, -128.61487, 36.040527
1981875188000, 132.46361, -128.65964, 35.831127
1981880202000, 133.16486, -128.73723, 35.625546
1981885158000, 133.86922, -128.82423, 35.395798
1981890196000, 134.51285, -128.90987, 35.151478
1981895182000, 135.06584, -129.00882, 34.91799
1981900218000, 135.55203, -129.22716, 34.801357
1981905138000, 135.93417, -129.44437, 34.705402
1981910241000, 136.27141, -129.79199, 34.72994
1981915202000, 136.51445, -130.14233, 34.79293
1981920199000, 136.71703, -130.53256, 34.90822
1981925180000, 136.87338, -130.92273, 35.050735
1981930872000, 136.9941, -131.37523, 35.279236
1981935197000, 137.07816, -131.81012, 35.516823
1981940196000, 137.00859, -132.10443, 35.70495
1981945164000, 136.91579, -132.38783, 35.90443
1981950192000, 136.84912, -132.7544, 36.180363
1981955200000, 136.76378, -133.1038, 36.463192
1981960244000, 136.77545, -133.61005, 36.863613
1981965242000, 136.79608, -134.10236, 37.25714
1981970199000, 136.86543, -134.62936, 37.67364
1981975187000, 136.96416, -135.1521, 38.082695
1981980169000, 137.06499, -135.62015, 38.451626
1981985195000, 137.24153, -136.07611, 38.778095
1981990129000, 137.42259, -136.42133, 39.0601
1981995166000, 137.69087, -136.74754, 39.27879
1982000218000, 137.98666, -137.10811, 39.605972
1982005194000, 138.3595, -137.46336, 39.881508
1982010244000, 138.77051, -137.87532, 40.270676
1982015204000, 139.24237, -138.31743, 40.64325
1982020303000, 139.70149, -138.75684, 40.985058
1982025201000, 140.19287, -139.26373, 41.363197
1982030415000, 140.75383, -139.83417, 41.70831
1982035219000, 141.32416, -140.4541, 42.089333
1982040175000, 141.96468, -141.14355, 42.473724
1982045183000, 142.62904, -141.85374, 42.872032
1982050174000, 143.32942, -142.57556, 43.27556
1982055194000, 144.11186, -143.3285, 43.67603
1982060221000, 144.95532, -144.08127, 44.05392
1982065210000, 145.8361, -144.84534, 44.43975
1982070222000, 146.81721, -145.60779, 44.773228
1982075210000, 147.85345, -146.38539, 45.08112
1982080188000, 148.92006, -147.1245, 45.32827
1982085195000, 150.0908, -147.9502, 45.58056
1982090181000, 151.23927, -148.71388, 45.75758
1982095177000, 152.51581, -149.55318, 45.875088
1982100195000, 153.702, -150.30315, 45.940784
1982105184000, 154.93016, -151.09834, 45.930485
1982110184000, 156.02626, -151.78499, 45.860744
1982115209000, 156.93695, -152.39941, 45.69521
1982120196000, 157.6715, -152.88795, 45.46768
1982125534000, 158.37724, -153.39865, 45.109123
1982130196000, 158.91139, -153.83485, 44.761578
1982135551000, 159.50778, -154.38193, 44.35327
1982140195000, 159.9878, -154.88197, 43.9789
1982145165000, 160.60403, -155.53723, 43.591705
1982150231000, 161.14186, -156.18228, 43.23431
1982155143000, 161.64331, -156.84009, 42.906197
1982160232000, 162.42368, -157.78867, 42.69075
1982165203000, 163.17513, -158.76317, 42.451534
1982170188000, 164.04755, -159.86136, 42.344246
1982175181000, 164.91257, -161.05081, 42.204906
1982180159000, 165.75124, -162.17993, 42.206123
1982185201000, 166.61766, -163.37727, 42.167732
1982190196000, 167.50784, -164.6258, 42.19024
1982195192000, 168.41449, -165.91948, 42.1617
1982200300000, 169.33394, -167.2385, 42.176037
1982205190000, 170.25635, -168.56601, 42.13527
1982210186000, 171.13306, -169.83408, 42.06952
1982215201000, 171.99559, -171.07326, 41.96561
1982220891000, 172.81471, -172.22762, 41.82923
1982225190000, 173.6136, -173.3201, 41.68629
1982230208000, 174.38263, -174.30118, 41.6006
1982235208000, 175.14294, -175.2002, 41.53476
1982240177000, 175.90543, -176.00096, 41.549286
1982245195000, 176.65988, -176.71478, 41.602264
1982250197000, 177.44609, -177.38786, 41.74426
1982255236000, 178.24727, -178.00758, 41.910473
1982260189000, 179.08191, -178.60628, 42.04585
1982265216000, 179.9073, -179.17801, 42.234833
1982270379000, 180.81406, -179.79048, 42.368755
1982275218000, 181.72801, 179.59793, 42.50282
1982280423000, 182.67412, 178.94762, 42.555267
1982285220000, 183.64317, 178.28075, 42.577114
1982290134000, 184.65874, 177.54033, 42.527966
1982295212000, 185.69131, 176.75325, 42.412025
1982300182000, 186.71028, 175.92711, 42.18343
1982305238000, 187.64717, 175.01378, 41.601322
1982310168000, 188.5623, 174.11911, 40.96169
1982315249000, 189.36528, 173.06566, 40.00827
1982320149000, 189.9814, 172.1208, 38.92502
1982325192000, 190.67134, 170.89784, 37.578056
1982330163000, 190.95834, 169.97539, 36.26185
1982335201000, 191.05598, 169.06026, 34.941036
1982340124000, 190.9723, 168.36295, 33.86475
1982345183000, 191.02135, 167.73433, 33.331444
1982350192000, 191.08693, 167.177, 33.1173
1982355194000, 191.28519, 166.59778, 33.244873
1982360152000, 191.6691, 165.96072, 33.841724
1982365205000, 192.34743, 165.2089, 34.504623
1982370219000, 193.12996, 164.3098, 35.266243
1982375191000, 194.02452, 163.40558, 36.03665
1982380185000, 194.91617, 162.4814, 36.74689
1982385203000, 195.757, 161.64552, 37.420128
1982390179000, 196.56569, 160.88547, 38.025345
1982395167000, 197.23305, 160.26424, 38.567574
1982400198000, 197.76817, 159.77579, 39.028786
1982405169000, 198.10512, 159.52077, 39.397003
1982410244000, 198.39261, 159.33807, 39.66109
1982416147000, 198.5018, 159.41786, 39.98964
1982420237000, 198.57402, 159.5215, 40.181175
1982425131000, 198.61833, 159.63185, 40.240208
1982430230000, 198.64363, 159.76482, 40.20697
1982435226000, 198.65944, 159.93806, 40.148335
1982440190000, 198.52171, 160.31401, 40.143997
1982445186000, 198.38644, 160.73857, 40.158566
1982450191000, 198.15347, 161.18553, 40.056778
1982455222000, 197.93578, 161.65901, 39.978424
1982460246000, 197.5892, 162.13559, 39.71155
1982465229000, 197.2549, 162.62247, 39.460045
1982470187000, 196.77002, 163.14038, 39.009163
1982475200000, 196.30226, 163.68729, 38.617218
1982480161000, 195.69852, 164.34825, 38.072136
1982485201000, 195.11768, 165.10196, 37.58437
1982490188000, 194.36337, 165.92021, 36.922237
1982495153000, 193.62994, 166.84984, 36.328457
1982500223000, 192.88039, 167.8332, 35.74357
1982505197000, 192.12689, 168.81085, 35.193405
1982510208000, 191.37488, 169.76128, 34.769478
1982515232000, 190.5675, 170.64555, 34.314205
1982520178000, 189.84375, 171.35214, 33.973877
1982525212000, 189.0314, 171.93513, 33.538128
1982530202000, 188.38661, 172.2428, 33.220547
1982535199000, 187.70518, 172.34862, 32.750957
1982540288000, 187.20538, 172.1717, 32.378426
1982545192000, 186.7139, 171.80043, 31.850388
1982550253000, 186.40424, 171.26219, 31.49377
1982555194000, 186.10336, 170.61176, 31.063543
1982560206000, 185.9275, 169.84962, 30.584072
1982565211000, 185.77121, 169.17757, 30.345121
1982570216000, 185.67992, 168.50443, 30.157255
1982575191000, 185.56662, 167.82297, 29.903854
1982580318000, 185.50172, 167.19516, 29.778648
1982585197000, 185.43253, 166.59546, 29.629486
1982590201000, 185.38167, 166.11905, 29.587206
1982595156000, 185.40659, 165.68935, 29.619514
1982600221000, 185.46703, 165.40689, 29.742823
1982605164000, 185.58505, 165.21188, 29.938763
1982610199000, 185.75113, 165.14314, 30.199842
1982615811000, 186.00038, 165.16203, 30.56423
1982620194000, 186.27701, 165.2694, 30.980896
1982625191000, 186.59244, 165.438, 31.44271
1982630167000, 186.8949, 165.73932, 31.957539
1982635201000, 187.21599, 166.05992, 32.480965
1982640194000, 187.53413, 166.424, 33.013588
1982645165000, 187.85107, 166.78242, 33.510983
1982650383000, 188.12297, 167.18118, 33.959408
1982655192000, 188.3946, 167.55086, 34.389523
1982660187000, 188.59477, 167.9736, 34.724873
1982665229000, 188.79393, 168.34319, 35.030945
1982670197000, 188.90883, 168.76909, 35.245506
1982675195000, 189.00801, 169.13821, 35.40693
1982680173000, 189.05185, 169.4718, 35.45181
1982685192000, 189.09038, 169.73572, 35.456882
1982690198000, 189.04402, 169.9551, 35.34722
1982695178000, 188.971, 170.1174, 35.20548
1982700180000, 188.83969, 170.21013, 34.959118
1982705199000, 188.6785, 170.26772, 34.707645
1982710132000, 188.45123, 170.27682, 34.368206
1982715232000, 188.19336, 170.26749, 34.042953
1982720159000, 187.91263, 170.24524, 33.704308
1982725210000, 187.61453, 170.22205, 33.390846
1982730189000, 187.29434, 170.20955, 33.10119
1982735217000, 186.95317, 170.217, 32.83087
1982740185000, 186.65588, 170.23546, 32.674786
1982745169000, 186.34592, 170.27834, 32.537617
1982750209000, 186.05757, 170.34671, 32.481747
1982755170000, 185.76955, 170.42563, 32.4343
1982760415000, 185.47293, 170.53673, 32.392323
1982765200000, 185.20644, 170.66519, 32.42421
1982770158000, 184.94545, 170.79895, 32.45664
1982775200000, 184.72223, 170.95737, 32.551422
1982780161000, 184.51366, 171.1175, 32.644623
1982785201000, 184.33617, 171.29282, 32.791813
1982790189000, 184.1808, 171.46518, 32.931324
1982795153000, 184.06305, 171.66025, 33.123085
1982800248000, 183.96823, 171.84735, 33.30634
1982805195000, 183.90627, 172.071, 33.521908
1982810194000, 183.876, 172.27565, 33.735703
1982815215000, 183.8511, 172.54211, 33.97745
1982820225000, 183.86667, 172.78233, 34.21942
1982825123000, 183.90366, 173.02599, 34.467907
1982830216000, 183.97385, 173.25333, 34.72971
1982835209000, 184.07259, 173.4645, 34.99941
1982840199000, 184.17227, 173.66862, 35.25372
1982845171000, 184.29321, 173.86719, 35.510426
1982850226000, 184.4233, 173.96873, 35.686935
1982855190000, 184.56625, 174.0675, 35.86167
1982860184000, 184.71446, 174.13293, 36.001526
1982865349000, 184.86754, 174.19237, 36.14506
1982870191000, 185.01004, 174.22842, 36.24272
1982875192000, 185.14108, 174.26015, 36.325176
1982880171000, 185.27281, 174.25868, 36.386818
1982885229000, 185.39389, 174.24893, 36.43171
1982890179000, 185.49042, 174.20364, 36.441147
1982895166000, 185.57231, 174.15085, 36.436783
1982900252000, 185.6358, 174.07397, 36.415203
1982905282000, 185.67613, 174.00053, 36.393322
1982910194000, 185.71585, 173.9058, 36.379852
1982920137000, 185.73164, 173.81941, 36.353325
1982925194000, 185.75095, 173.72011, 36.34663
1982930163000, 185.7637, 173.61119, 36.328274
1982935232000, 185.76279, 173.5062, 36.30488
1982940145000, 185.75897, 173.39095, 36.27875
1982945177000, 185.74783, 173.2782, 36.249557
1982950198000, 185.73666, 173.15182, 36.203865
1982955191000, 185.71315, 173.02867, 36.16081
1982960217000, 185.67714, 172.92018, 36.108475
1982965209000, 185.64908, 172.80669, 36.049427
1982970161000, 185.62045, 172.69261, 35.989742
1982975221000, 185.5922, 172.587, 35.922607
1982980167000, 185.57487, 172.48705, 35.86074
1982985235000, 185.55922, 172.39362, 35.80186
1982990182000, 185.55289, 172.32205, 35.762947
1982995196000, 185.55096, 172.2552, 35.73851
1983000519000, 185.55429, 172.20343, 35.738075
1983005197000, 185.56906, 172.15298, 35.755432
1983010914000, 185.58446, 172.12375, 35.796947
1983015204000, 185.6147, 172.08847, 35.8564
1983020159000, 185.6465, 172.07431, 35.934788
1983025197000, 185.6925, 172.05025, 36.026543
1983030166000, 185.74171, 172.03185, 36.11737
1983035170000, 185.79985, 172.02235, 36.231354
1983040162000, 185.85727, 172.01248, 36.347675
1983045161000, 185.92157, 172.02109, 36.473682
1983050297000, 185.9808, 172.02486, 36.59447
1983055194000, 186.04497, 172.02962, 36.720005
1983060193000, 186.11003, 172.03096, 36.835934
1983065203000, 186.17078, 172.03227, 36.940536
1983070192000, 186.22748, 172.02821, 37.039104
1983075205000, 186.27551, 172.02892, 37.11747
1983080206000, 186.31326, 172.02545, 37.188206
1983085139000, 186.34627, 172.02348, 37.24464
1983090197000, 186.37672, 172.016, 37.295414
1983095156000, 186.3899, 172.013, 37.32711
1983100304000, 186.40573, 172.00288, 37.358177
1983105155000, 186.3891, 172.00822, 37.352962
1983110211000, 186.36667, 172.0099, 37.349037
1983115287000, 186.33374, 172.01785, 37.33517
1983120197000, 186.2966, 172.02647, 37.320328
1983125230000, 186.2396, 172.0416, 37.288734
1983130205000, 186.18703, 172.05293, 37.260147
1983135222000, 186.12613, 172.07219, 37.233948
1983140190000, 186.06552, 172.0949, 37.207825
1983145161000, 186.0073, 172.10378, 37.180183
1983150202000, 185.94759, 172.12073, 37.153458
1983155127000, 185.8876, 172.14001, 37.130524
1983160182000, 185.84782, 172.14581, 37.120327
1983165304000, 185.80748, 172.15283, 37.111313
1983170275000, 185.78821, 172.15788, 37.120956
1983175195000, 185.77184, 172.16032, 37.129555
1983180169000, 185.77487, 172.16003, 37.15456
1983185202000, 185.77356, 172.1613, 37.17727
1983190197000, 185.78929, 172.1602, 37.211185
1983195160000, 185.80478, 172.16064, 37.243248
1983200214000, 185.83365, 172.1586, 37.28845
1983205196000, 185.86284, 172.16286, 37.326065
1983210200000, 185.88795, 172.1757, 37.37016
1983215245000, 185.91414, 172.191, 37.406284
1983220163000, 185.93391, 172.21698, 37.444508
1983225195000, 185.95229, 172.25029, 37.47875
1983230167000, 185.96445, 172.29028, 37.50954
1983235201000, 185.96906, 172.33804, 37.53418
1983240130000, 185.96643, 172.38847, 37.55043
1983245171000, 185.96588, 172.43762, 37.55937
1983250202000, 185.9467, 172.49997, 37.559288
1983255197000, 185.93092, 172.55183, 37.553505
1983260201000, 185.90387, 172.61383, 37.536846
1983265990000, 185.87854, 172.66678, 37.517212
1983270163000, 185.84239, 172.72566, 37.4918
1983275196000, 185.80922, 172.77704, 37.46578
1983280165000, 185.78076, 172.82, 37.440434
1983285199000, 185.74284, 172.8743, 37.413284
1983290166000, 185.70856, 172.92067, 37.38762
1983295186000, 185.67345, 172.96283, 37.36132
1983300391000, 185.64258, 173.00317, 37.33569
1983305196000, 185.59698, 173.05359, 37.294804
1983310205000, 185.5504, 173.09987, 37.257195
1983315235000, 185.4927, 173.1464, 37.202118
1983320199000, 185.43198, 173.19295, 37.150036
1983325194000, 185.3753, 173.23984, 37.099747
1983330202000, 185.31944, 173.28976, 37.049934
1983335186000, 185.2632, 173.32935, 36.998554
1983340195000, 185.20949, 173.37317, 36.953205
1983345165000, 185.15862, 173.4113, 36.910923
1983350235000, 185.10774, 173.4546, 36.873543
1983355127000, 185.06433, 173.49014, 36.835964
1983360214000, 185.02246, 173.5306, 36.804897
1983365169000, 184.99301, 173.55936, 36.776672
1983370196000, 184.96175, 173.59262, 36.754963
1983375151000, 184.94333, 173.61456, 36.73633
1983380207000, 184.92603, 173.6403, 36.71757
1983385157000, 184.91502, 173.65083, 36.701195
1983390198000, 184.90814, 173.6651, 36.68728
1983395299000, 184.9029, 173.67703, 36.67017
1983400221000, 184.90077, 173.68326, 36.653507
1983405157000, 184.90103, 173.69006, 36.63646
1983410217000, 184.90575, 173.69089, 36.615925
1983415204000, 184.90479, 173.6944, 36.595203
1983420199000, 184.91406, 173.6902, 36.562817
1983425178000, 184.92073, 173.68823, 36.534363
1983430199000, 184.93254, 173.68304, 36.50191
1983435227000, 184.94083, 173.67935, 36.469345
1983440197000, 184.94559, 173.67342, 36.426228
1983445188000, 184.94398, 173.67223, 36.380848
1983450255000, 184.92459, 173.66902, 36.316643
1983455256000, 184.9033, 173.66896, 36.252514
1983460211000, 184.87202, 173.67331, 36.179096
1983465207000, 184.83835, 173.67632, 36.109997
1983470208000, 184.80486, 173.6849, 36.04205
1983475197000, 184.7652, 173.68875, 35.973206
1983480166000, 184.73239, 173.7013, 35.917507
1983485222000, 184.69942, 173.7121, 35.85802
1983490207000, 184.65643, 173.73135, 35.813084
1983495197000, 184.62149, 173.7454, 35.764683
1983500248000, 184.58984, 173.75261, 35.722958
1983505198000, 184.55966, 173.76028, 35.679516
1983510226000, 184.52036, 173.77864, 35.64036
1983515182000, 184.48718, 173.79561, 35.600414
1983520221000, 184.45172, 173.81273, 35.56217
1983525220000, 184.42264, 173.82642, 35.527874
1983530188000, 184.39641, 173.83516, 35.491577
1983535202000, 184.3706, 173.84886, 35.453915
1983540156000, 184.35576, 173.84879, 35.42164
1983545226000, 184.33778, 173.85533, 35.387623
1983550267000, 184.32478, 173.8505, 35.353806
1983555196000, 184.31256, 173.8511, 35.317524
1983560171000, 184.30624, 173.83676, 35.28782
1983565249000, 184.30011, 173.8288, 35.258183
1983570166000, 184.29785, 173.81158, 35.22534
1983575196000, 184.29015, 173.8037, 35.205013
1983580199000, 184.28932, 173.7911, 35.184723
1983585162000, 184.29362, 173.7715, 35.173195
1983590168000, 184.30318, 173.74983, 35.171494
1983595188000, 184.31375, 173.7274, 35.17102
1983600402000, 184.32478, 173.70244, 35.174004
1983605217000, 184.33672, 173.6758, 35.175983
1983610198000, 184.34747, 173.64383, 35.178654
1983615193000, 184.3611, 173.61836, 35.185936
1983620240000, 184.37575, 173.58759, 35.18907
1983625190000, 184.38612, 173.56456, 35.20435
1983630177000, 184.39716, 173.53473, 35.216564
1983635205000, 184.4106, 173.50932, 35.238194
1983640193000, 184.42545, 173.48376, 35.25581
1983645159000, 184.44096, 173.4586, 35.27856
1983650297000, 184.45512, 173.4329, 35.293583
1983655196000, 184.4723, 173.41327, 35.315384
1983660800000, 184.48721, 173.39334, 35.33445
1983665160000, 184.49638, 173.37817, 35.356136
1983670229000, 184.51064, 173.36107, 35.37896
1983675195000, 184.5176, 173.3514, 35.396297
1983680201000, 184.52737, 173.34146, 35.412373
1983685162000, 184.53683, 173.33109, 35.431885
1983690173000, 184.547, 173.3271, 35.447765
1983695193000, 184.55937, 173.31792, 35.46148
1983700203000, 184.57121, 173.30925, 35.476273
1983705172000, 184.587, 173.2954, 35.485065
1983710215000, 184.59677, 173.2861, 35.49238
1983715137000, 184.61783, 173.267, 35.50282
1983720202000, 184.63618, 173.25496, 35.5125
1983725156000, 184.66531, 173.21733, 35.512196
1983730189000, 184.6874, 173.18808, 35.51392
1983735162000, 184.7175, 173.14522, 35.512966
1983740219000, 184.74348, 173.10956, 35.51742
1983745179000, 184.76218, 173.07748, 35.520714
1983750286000, 184.77852, 173.0448, 35.5243
1983755071000, 184.80415, 173.00687, 35.534912
1983760133000, 184.82434, 172.97263, 35.543003
1983765113000, 184.84631, 172.94237, 35.56026
1983770100000, 184.87086, 172.90982, 35.57845
1983775072000, 184.89534, 172.88304, 35.603596
1983780137000, 184.92146, 172.85269, 35.62273
1983785117000, 184.94481, 172.82986, 35.65718
1983790098000, 184.97115, 172.80785, 35.684814
1983795085000, 184.9888, 172.79068, 35.715946
1983800195000, 185.01114, 172.77693, 35.746414
1983805203000, 185.02719, 172.77324, 35.78535
1983810217000, 185.04579, 172.76949, 35.81737
1983815255000, 185.07295, 172.76103, 35.851116
1983820199000, 185.10179, 172.75046, 35.88423
1983825179000, 185.12791, 172.74622, 35.911224
1983830188000, 185.16148, 172.73637, 35.938297
1983835196000, 185.19408, 172.73058, 35.963177
1983840191000, 185.20857, 172.7423, 35.981396
1983845197000, 185.23016, 172.75114, 35.997658
1983850193000, 185.24399, 172.76276, 36.007393
1983855227000, 185.25865, 172.77412, 36.015495
1983860216000, 185.27393, 172.7794, 36.009758
1983865204000, 185.28535, 172.78755, 36.004936
1983870196000, 185.29604, 172.79083, 35.992447
1983875183000, 185.30087, 172.79367, 35.97664
1983880192000, 185.30878, 172.79887, 35.960335
1983885196000, 185.30963, 172.80736, 35.944233
1983890193000, 185.31134, 172.80324, 35.91041
1983895159000, 185.31654, 172.79337, 35.88118
1983900395000, 185.31721, 172.7899, 35.847084
1983905188000, 185.32176, 172.77844, 35.81384
1983910215000, 185.3223, 172.77097, 35.78518
1983916139000, 185.32391, 172.75394, 35.75259
1983920192000, 185.32727, 172.73225, 35.72254
1983925189000, 185.327, 172.71217, 35.69222
1983930196000, 185.32666, 172.6891, 35.667004
1983935188000, 185.32744, 172.66403, 35.642757
1983940194000, 185.32697, 172.639, 35.626984
1983945198000, 185.33394, 172.61758, 35.61714
1983950375000, 185.33911, 172.59442, 35.615036
1983955186000, 185.3407, 172.58972, 35.61692
1983960220000, 185.34645, 172.582, 35.623917
1983965215000, 185.34776, 172.58308, 35.634533
1983970196000, 185.35504, 172.58542, 35.64357
1983975201000, 185.3619, 172.5858, 35.655804
1983980166000, 185.37292, 172.59082, 35.668903
1983985728000, 185.36694, 172.6066, 35.667408
1983990194000, 185.36333, 172.62187, 35.66766
1983995156000, 185.3585, 172.64212, 35.666008
1984000219000, 185.35226, 172.66269, 35.663116
1984005128000, 185.35043, 172.68445, 35.657486
1984010237000, 185.34825, 172.70714, 35.65359
1984015256000, 185.34195, 172.72372, 35.632717
1984020216000, 185.33533, 172.73949, 35.617584
1984025198000, 185.32623, 172.75584, 35.59798
1984030181000, 185.31418, 172.77048, 35.57181
1984035198000, 185.30565, 172.78569, 35.548546
1984040187000, 185.28943, 172.80214, 35.52254
1984045197000, 185.27837, 172.81364, 35.499874
1984050225000, 185.25337, 172.83153, 35.46098
1984055152000, 185.22546, 172.84578, 35.42468
1984060231000, 185.20062, 172.85796, 35.386078
1984065236000, 185.17613, 172.86656, 35.34484
1984070200000, 185.14842, 172.86522, 35.305656
1984075186000, 185.11896, 172.86237, 35.26289
1984080168000, 185.09787, 172.85258, 35.22638
1984085187000, 185.08011, 172.83656, 35.191025
1984090182000, 185.05418, 172.8281, 35.157578
1984095159000, 185.03545, 172.81442, 35.127262
1984100220000, 185.02725, 172.80005, 35.10589
1984105192000, 185.01825, 172.78568, 35.088707
1984110240000, 185.02187, 172.7715, 35.080456
1984115206000, 185.02243, 172.75728, 35.06818
1984120171000, 185.02695, 172.74605, 35.06748
1984125164000, 185.03065, 172.7398, 35.065243
1984130159000, 185.03732, 172.73233, 35.06942
1984135166000, 185.04312, 172.72845, 35.076527
1984140126000, 185.0552, 172.72752, 35.087193
1984145215000, 185.06467, 172.7271, 35.097294
1984150212000, 185.07655, 172.72748, 35.11049
1984155193000, 185.09062, 172.72237, 35.118
1984160483000, 185.09546, 172.7246, 35.127
1984165203000, 185.09941, 172.72815, 35.132107
1984170161000, 185.10786, 172.7243, 35.135983
1984180191000, 185.11856, 172.71678, 35.13861
1984185195000, 185.12514, 172.71524, 35.141724
1984190196000, 185.12885, 172.70891, 35.140366
1984195205000, 185.1325, 172.70209, 35.1368
1984200218000, 185.13974, 172.69357, 35.134483
1984205193000, 185.14108, 172.68652, 35.131138
1984210264000, 185.14087, 172.68185, 35.126987
1984215167000, 185.13817, 172.66989, 35.120514
1984220200000, 185.13158, 172.66208, 35.112408
1984225134000, 185.12865, 172.6485, 35.10808
1984230190000, 185.12349, 172.63713, 35.102337
1984235154000, 185.12485, 172.62479, 35.094017
1984240195000, 185.1221, 172.61063, 35.08746
1984245217000, 185.12743, 172.59444, 35.08442
1984250291000, 185.12779, 172.57721, 35.074608
1984255134000, 185.12915, 172.5651, 35.076706
1984260263000, 185.13667, 172.54784, 35.077774
1984265209000, 185.13977, 172.53165, 35.083206
1984270198000, 185.14058, 172.52382, 35.091896
1984275288000, 185.143, 172.51451, 35.09837
1984280184000, 185.14607, 172.50517, 35.109043
1984285194000, 185.146, 172.50136, 35.116608
1984290194000, 185.14362, 172.49274, 35.131107
1984295153000, 185.1438, 172.48512, 35.143784
1984300219000, 185.13396, 172.48857, 35.153137
1984305191000, 185.12915, 172.4891, 35.166412
1984310855000, 185.12207, 172.49364, 35.17615
1984315233000, 185.11574, 172.49754, 35.18708
1984320195000, 185.10849, 172.5027, 35.1972
1984325184000, 185.10405, 172.50606, 35.204357
1984330157000, 185.09575, 172.51363, 35.216717
1984335194000, 185.08376, 172.51872, 35.223526
1984340191000, 185.07721, 172.52872, 35.236572
1984345243000, 185.06325, 172.54134, 35.240685
1984350198000, 185.05571, 172.54788, 35.247616
1984355190000, 185.0506, 172.55104, 35.2528
1984360155000, 185.03941, 172.55693, 35.254993
1984365280000, 185.03467, 172.5592, 35.25752
1984370169000, 185.03046, 172.55957, 35.25796
1984375185000, 185.0268, 172.55728, 35.257427
1984380884000, 185.02016, 172.55116, 35.25468
1984385199000, 185.02171, 172.54446, 35.255184
1984390125000, 185.02415, 172.53381, 35.256973
1984400218000, 185.02318, 172.52675, 35.25368
1984405191000, 185.02199, 172.5256, 35.260098
1984410179000, 185.02573, 172.51811, 35.25838
1984415262000, 185.02483, 172.51251, 35.25594
1984420180000, 185.02878, 172.50336, 35.256546
1984425185000, 185.03127, 172.49774, 35.253983
1984430172000, 185.02495, 172.48871, 35.256413
1984435231000, 185.02182, 172.48163, 35.25738
1984440248000, 185.01535, 172.47696, 35.256313
1984445189000, 185.00868, 172.4696, 35.258198
1984451114000, 185.00009, 172.4656, 35.25225
1984455189000, 184.9896, 172.4581, 35.245636
1984460177000, 184.98494, 172.45422, 35.2375
1984465256000, 184.9787, 172.44724, 35.22934
1984470153000, 184.9811, 172.43689, 35.22951
1984475186000, 184.98453, 172.4293, 35.23262
1984480158000, 184.9892, 172.41418, 35.230118
1984485195000, 184.98427, 172.41122, 35.228516
1984495203000, 184.98447, 172.39847, 35.2246
1984500253000, 184.9778, 172.39935, 35.21477
1984505183000, 184.97583, 172.4043, 35.210003
1984510173000, 184.9751, 172.40521, 35.206944
1984520225000, 184.97601, 172.40921, 35.203175
1984525198000, 184.97604, 172.41193, 35.19908
1984530191000, 184.97435, 172.41501, 35.19003
1984535194000, 184.97597, 172.41275, 35.18586
1984540190000, 184.97748, 172.41321, 35.180775
1984550221000, 184.97908, 172.41441, 35.17553
1984555193000, 184.98346, 172.41286, 35.17056
1984560201000, 184.98376, 172.4151, 35.163597
1984565171000, 184.98328, 172.41583, 35.15052
1984570196000, 184.98451, 172.42088, 35.14232
1984575185000, 184.98497, 172.42624, 35.135456
1984580187000, 184.98886, 172.42758, 35.128902
1984585224000, 184.99304, 172.43202, 35.124863
1984590187000, 184.99521, 172.4386, 35.117943
1984595157000, 184.99916, 172.44606, 35.11557
1984600346000, 185.0022, 172.45103, 35.10554
1984605128000, 185.0015, 172.45828, 35.098656
1984610199000, 185.00543, 172.46417, 35.087666
1984615197000, 185.00177, 172.4684, 35.079407
1984620196000, 185.00417, 172.47095, 35.068985
1984625187000, 185.0033, 172.47708, 35.0584
1984630212000, 185.00111, 172.47957, 35.058685
1984635822000, 185.00352, 172.48463, 35.053696
1984640192000, 185.00255, 172.48828, 35.051003
1984645189000, 185.00539, 172.49037, 35.04796
1984650223000, 185.00337, 172.49762, 35.0454
1984655219000, 185.00171, 172.50249, 35.039726
1984660182000, 185.007, 172.50275, 35.0374
1984665232000, 185.00494, 172.51067, 35.031982
1984670270000, 185.00507, 172.51752, 35.03431
1984675167000, 185.00603, 172.52493, 35.032326
1984680261000, 185.00002, 172.53035, 35.02989
1984685287000, 184.99371, 172.53276, 35.03282
1984690224000, 184.99014, 172.54234, 35.03477
1984695197000, 184.98886, 172.54611, 35.041523
1984700158000, 184.98834, 172.5498, 35.045845
1984705187000, 184.99057, 172.55449, 35.054222
1984710197000, 184.9943, 172.55344, 35.056595
1984715198000, 184.99744, 172.55354, 35.064507
1984720168000, 185.00421, 172.54651, 35.071724
1984725199000, 185.01064, 172.54019, 35.082752
1984730321000, 185.01112, 172.53131, 35.091698
1984755079000, 185.03188, 172.46872, 35.118717
1984760054000, 185.03464, 172.45706, 35.123943
1984765135000, 185.0451, 172.4425, 35.131268
1984770102000, 185.05276, 172.42769, 35.133404
1984775101000, 185.05458, 172.41725, 35.136307
1984780134000, 185.0587, 172.40515, 35.132885
1984785107000, 185.06108, 172.39278, 35.134148
1984790096000, 185.05977, 172.3851, 35.131756
1984795081000, 185.06042, 172.37086, 35.13061
1984800189000, 185.05843, 172.36143, 35.12695
1984805143000, 185.06177, 172.34454, 35.120895
1984810141000, 185.05907, 172.33525, 35.11286
1984815176000, 185.05997, 172.31955, 35.11278
1984820146000, 185.05849, 172.30522, 35.101505
1984825146000, 185.06094, 172.29626, 35.09962
1984830117000, 185.06094, 172.28299, 35.09186
1984835149000, 185.06407, 172.27133, 35.089916
1984840143000, 185.06474, 172.26308, 35.08809
1984845136000, 185.06981, 172.25111, 35.084244
1984850211000, 185.07375, 172.2405, 35.08097
1984855128000, 185.0801, 172.22777, 35.079155
1984860187000, 185.085, 172.21901, 35.076298
1984865235000, 185.0872, 172.21184, 35.072456
1984870196000, 185.09656, 172.20558, 35.075386
1984875202000, 185.10602, 172.19772, 35.07554
1984880220000, 185.11432, 172.19296, 35.076977
1984885251000, 185.12239, 172.18443, 35.07551
1984890196000, 185.13184, 172.17838, 35.074715
1984895157000, 185.1406, 172.17162, 35.07431
1984900255000, 185.14763, 172.1652, 35.071533
1984905196000, 185.15727, 172.16048, 35.069595
1984910189000, 185.17088, 172.15262, 35.06482
1984915211000, 185.18692, 172.14166, 35.0622
1984920190000, 185.2012, 172.13393, 35.055412
1984925151000, 185.21489, 172.12337, 35.046097
1984930181000, 185.23146, 172.10919, 35.040886
1984935225000, 185.24448, 172.10114, 35.036873
1984940159000, 185.2589, 172.0874, 35.028378
1984945194000, 185.27522, 172.07703, 35.02244
1984950215000, 185.28795, 172.06337, 35.017445
1984955188000, 185.30095, 172.05162, 35.013187
1984960131000, 185.32126, 172.03722, 35.010334
1984965277000, 185.33475, 172.02298, 35.00682
1984970156000, 185.3575, 172.00331, 35.00537
1984975225000, 185.37657, 171.98169, 34.997288
1984980159000, 185.38995, 171.965, 34.989555
1984985229000, 185.40344, 171.94936, 34.977528
1984990178000, 185.41763, 171.92715, 34.974834
1984995211000, 185.43065, 171.91138, 34.96389
1985000282000, 185.44229, 171.88908, 34.960766
1985005197000, 185.45688, 171.87068, 34.95161
1985010188000, 185.46373, 171.85312, 34.943066
1985015187000, 185.47478, 171.83359, 34.93852
1985020163000, 185.47829, 171.81921, 34.92708
1985025202000, 185.48627, 171.79993, 34.91887
1985030909000, 185.49178, 171.78319, 34.909924
1985035202000, 185.49506, 171.77176, 34.902267
1985040186000, 185.50218, 171.75839, 34.89823
1985045167000, 185.50732, 171.74692, 34.889595
1985050238000, 185.51721, 171.7339, 34.886982
1985055168000, 185.5233, 171.7259, 34.886276
1985060185000, 185.53218, 171.71713, 34.878933
1985065231000, 185.54393, 171.71083, 34.882496
1985070223000, 185.55527, 171.70044, 34.879623
1985075190000, 185.56288, 171.703, 34.880386
1985080187000, 185.56741, 171.70854, 34.88428
1985085202000, 185.57545, 171.71283, 34.887844
1985090188000, 185.58252, 171.7147, 34.88882
1985095152000, 185.58138, 171.7093, 34.883564
1985100232000, 185.58063, 171.70546, 34.87915
1985105193000, 185.57938, 171.69899, 34.8723
1985110183000, 185.58159, 171.68616, 34.863518
1985115210000, 185.5757, 171.67899, 34.85593
1985120196000, 185.57826, 171.67126, 34.849453
1985125365000, 185.57526, 171.6623, 34.83923
1985130190000, 185.57497, 171.65091, 34.829437
1985135501000, 185.57324, 171.63722, 34.8186
1985140184000, 185.57362, 171.622, 34.803684
1985145170000, 185.5726, 171.60667, 34.791203
1985150220000, 185.56972, 171.59361, 34.78114
1985155127000, 185.5702, 171.579, 34.76561
1985160187000, 185.58041, 171.55498, 34.760296
1985165209000, 185.5906, 171.53635, 34.75253
1985170191000, 185.60295, 171.51057, 34.74515
1985175208000, 185.61002, 171.49588, 34.736694
1985185200000, 185.62343, 171.46626, 34.732033
1985190190000, 185.63234, 171.44568, 34.721176
1985195165000, 185.64803, 171.41995, 34.714573
1985200235000, 185.65279, 171.39938, 34.712307
1985205196000, 185.6671, 171.37924, 34.707493
1985210186000, 185.67642, 171.35988, 34.70564
1985215176000, 185.68832, 171.34052, 34.704594
1985220193000, 185.70209, 171.32257, 34.708187
1985225192000, 185.71559, 171.30415, 34.706993
1985230164000, 185.72787, 171.28328, 34.712063
1985235229000, 185.73846, 171.26932, 34.714607
1985240188000, 185.74777, 171.24902, 34.717113
1985245218000, 185.75992, 171.23128, 34.72033
1985250178000, 185.77107, 171.21669, 34.72558
1985255198000, 185.77632, 171.20241, 34.728745
1985260185000, 185.79175, 171.19028, 34.733395
1985265230000, 185.79565, 171.18602, 34.738827
1985270193000, 185.80148, 171.17822, 34.740276
1985275209000, 185.8044, 171.17352, 34.736664
1985280157000, 185.80931, 171.17203, 34.738953
1985285228000, 185.81802, 171.1673, 34.73498
1985290155000, 185.82233, 171.16232, 34.734756
1985295188000, 185.8285, 171.1573, 34.72899
1985300199000, 185.83199, 171.14796, 34.724785
1985305253000, 185.8343, 171.14331, 34.720463
1985310119000, 185.84225, 171.12936, 34.71532
1985315204000, 185.8451, 171.11891, 34.708138
1985320156000, 185.85155, 171.10626, 34.702488
1985325191000, 185.85756, 171.0943, 34.69124
1985330154000, 185.86226, 171.07361, 34.68324
1985335166000, 185.86574, 171.0566, 34.67074
1985340148000, 185.86899, 171.04076, 34.66214
1985345184000, 185.87401, 171.02228, 34.657097
1985350227000, 185.8764, 171.00778, 34.646378
1985355193000, 185.87784, 170.99225, 34.64108
1985360231000, 185.88654, 170.97055, 34.63108
1985365216000, 185.89162, 170.9524, 34.626514
1985370228000, 185.90239, 170.93105, 34.62231
1985375205000, 185.91393, 170.90884, 34.618423
1985380212000, 185.9214, 170.89148, 34.616528
1985385196000, 185.93182, 170.86687, 34.614185
1985390171000, 185.93814, 170.84628, 34.613438
1985395232000, 185.94641, 170.82802, 34.612514
1985400312000, 185.94987, 170.81111, 34.613174
1985405106000, 185.96043, 170.79805, 34.606377
1985410127000, 185.9671, 170.7837, 34.60206
1985415120000, 185.97314, 170.77464, 34.59381
1985420099000, 185.97687, 170.76549, 34.58632
1985425047000, 185.97868, 170.75847, 34.576817
1985430106000, 185.98547, 170.746, 34.567326
1985435044000, 185.9787, 170.74443, 34.557304
1985440099000, 185.97337, 170.73245, 34.547092
1985445099000, 185.96776, 170.73033, 34.538956
1985450185000, 185.96136, 170.71992, 34.52977
1985455106000, 185.96384, 170.71095, 34.522575
1985460142000, 185.95937, 170.7037, 34.516327
1985465161000, 185.96158, 170.69717, 34.510265
1985470142000, 185.96901, 170.68434, 34.50464
1985475106000, 185.97066, 170.6791, 34.50371
1985480140000, 185.97662, 170.66922, 34.496994
1985485135000, 185.98213, 170.66382, 34.498608
1985490139000, 185.98715, 170.65706, 34.493046
1985495118000, 185.99615, 170.6463, 34.495674
1985500198000, 186.00818, 170.63939, 34.501408
1985505201000, 186.0242, 170.62862, 34.4979
1985510180000, 186.04538, 170.61966, 34.500908
1985515197000, 186.06451, 170.61383, 34.499207
1985520227000, 186.08995, 170.60628, 34.501347
1985530167000, 186.1135, 170.59946, 34.500305
1985535170000, 186.13527, 170.59322, 34.50174
1985540192000, 186.15735, 170.58391, 34.499653
1985545228000, 186.17049, 170.57428, 34.49287
1985550220000, 186.18558, 170.56422, 34.483974
1985555329000, 186.20226, 170.5538, 34.47995
1985560211000, 186.21883, 170.54478, 34.47033
1985565195000, 186.23732, 170.52805, 34.46259
1985575122000, 186.25432, 170.51427, 34.456615
1985580193000, 186.27277, 170.5021, 34.448105
1985585157000, 186.29535, 170.48248, 34.438595
1985590184000, 186.31409, 170.46614, 34.43648
1985595158000, 186.33449, 170.44781, 34.42604
1985600286000, 186.3637, 170.43083, 34.421783
1985605251000, 186.39134, 170.40865, 34.417015
1985610200000, 186.41656, 170.39153, 34.40892
1985615212000, 186.43686, 170.37637, 34.39847
1985620166000, 186.4616, 170.35782, 34.391422
1985625206000, 186.48088, 170.34436, 34.385666
1985630201000, 186.50311, 170.32506, 34.372906
1985635220000, 186.52283, 170.30753, 34.367172
1985640219000, 186.53804, 170.29178, 34.354237
1985645204000, 186.5561, 170.27565, 34.34058
1985650223000, 186.56833, 170.2616, 34.33468
1985655184000, 186.58519, 170.24815, 34.330494
1985660208000, 186.60031, 170.2312, 34.32545
1985665214000, 186.61246, 170.22171, 34.32251
1985670164000, 186.6315, 170.2052, 34.32044
1985675195000, 186.64456, 170.19662, 34.32385
1985680187000, 186.6558, 170.18015, 34.32254
1985685159000, 186.66687, 170.16641, 34.32567
1985695180000, 186.67908, 170.15286, 34.324524
1985700184000, 186.68762, 170.13837, 34.32829
1985705183000, 186.69931, 170.13109, 34.331444
1985710186000, 186.71088, 170.11772, 34.33433
1985715202000, 186.71857, 170.11113, 34.336033
1985720182000, 186.73067, 170.10071, 34.339394
1985725217000, 186.73851, 170.09435, 34.34132
1985730200000, 186.74821, 170.0914, 34.343838
1985735209000, 186.75165, 170.09091, 34.346886
1985740213000, 186.76198, 170.08311, 34.342495
1985745235000, 186.77133, 170.07289, 34.34198
1985750305000, 186.77036, 170.06287, 34.33842
1985755129000, 186.7707, 170.05173, 34.341446
1985760080000, 186.77176, 170.04965, 34.339256
1985765150000, 186.77325, 170.04349, 34.342907
1985770075000, 186.77197, 170.03868, 34.341595
1985775109000, 186.77678, 170.03235, 34.345165
1985780077000, 186.7741, 170.02626, 34.336338
1985785103000, 186.7778, 170.01524, 34.335835
1985790045000, 186.77562, 170.00616, 34.33096
1985795077000, 186.7747, 169.99492, 34.326885
1985800081000, 186.77441, 169.98311, 34.32389
1985805152000, 186.77272, 169.97115, 34.317474
1985810111000, 186.77386, 169.95805, 34.31527
1985815258000, 186.77415, 169.94524, 34.311565
1985820140000, 186.7698, 169.93463, 34.304283
1985825171000, 186.77081, 169.92543, 34.298252
1985830146000, 186.76382, 169.92021, 34.29376
1985835186000, 186.75977, 169.9139, 34.292248
1985840164000, 186.75667, 169.91174, 34.286606
1985845156000, 186.74614, 169.91277, 34.284286
1985850216000, 186.74391, 169.91357, 34.282467
1985855193000, 186.7398, 169.91461, 34.28345
1985860395000, 186.74008, 169.91138, 34.285072
1985865203000, 186.73845, 169.9149, 34.28825
1985870163000, 186.73087, 169.91255, 34.284813
1985875196000, 186.7256, 169.90903, 34.284695
1985880163000, 186.7157, 169.9072, 34.282913
1985885230000, 186.71127, 169.9019, 34.28226
1985890124000, 186.70088, 169.90433, 34.28176
1985895193000, 186.69438, 169.9024, 34.283882
1985900271000, 186.69, 169.89835, 34.28742
1985905197000, 186.6807, 169.90103, 34.28821
1985910176000, 186.67523, 169.89534, 34.29195
1985915205000, 186.67651, 169.8933, 34.294884
1985920225000, 186.67453, 169.89165, 34.300877
1985925195000, 186.67361, 169.88347, 34.306267
1985930190000, 186.67123, 169.88287, 34.311142
1985935172000, 186.67111, 169.87161, 34.319122
1985940188000, 186.66827, 169.8703, 34.32101
1985945176000, 186.66884, 169.85976, 34.32448
1985950222000, 186.66862, 169.85196, 34.323345
1985955189000, 186.66663, 169.84137, 34.32388
1985960189000, 186.66812, 169.83545, 34.31597
1985965190000, 186.66241, 169.82133, 34.31531
1985975195000, 186.66231, 169.81242, 34.31275
1985980187000, 186.65703, 169.80551, 34.31197
1985985183000, 186.66042, 169.79292, 34.30646
1985990190000, 186.66084, 169.78163, 34.30253
1985995200000, 186.65973, 169.7715, 34.2955
1986000222000, 186.66054, 169.75983, 34.289642
1986005476000, 186.65733, 169.75179, 34.28438
1986010188000, 186.65787, 169.74068, 34.27919
1986015177000, 186.65405, 169.7299, 34.276688
1986020193000, 186.65582, 169.71844, 34.270336
1986025193000, 186.65013, 169.70934, 34.268665
1986030190000, 186.65125, 169.69672, 34.262573
1986035202000, 186.64713, 169.68944, 34.258213
1986040197000, 186.64763, 169.68057, 34.251682
1986045193000, 186.64835, 169.67119, 34.247147
1986051487000, 186.6497, 169.66483, 34.241104
1986055200000, 186.64333, 169.66216, 34.234592
1986060188000, 186.64314, 169.65617, 34.231888
1986065240000, 186.64111, 169.65112, 34.23086
1986070192000, 186.64406, 169.64854, 34.22864
1986075194000, 186.64436, 169.64755, 34.225002
1986080190000, 186.64929, 169.6437, 34.222572
1986085229000, 186.64882, 169.644, 34.21943
1986090156000, 186.6559, 169.6416, 34.217247
1986095228000, 186.66591, 169.63745, 34.21416
1986100666000, 186.67537, 169.63515, 34.21373
1986105223000, 186.68338, 169.63261, 34.209965
1986110556000, 186.7028, 169.62364, 34.219032
1986115220000, 186.71646, 169.62222, 34.222042
1986120161000, 186.73024, 169.61707, 34.226692
1986125192000, 186.75269, 169.60811, 34.235485
1986130191000, 186.76497, 169.60774, 34.23831
1986135164000, 186.77933, 169.60367, 34.244427
1986140179000, 186.79445, 169.59879, 34.248997
1986150210000, 186.80176, 169.59898, 34.25159
1986155196000, 186.81024, 169.59683, 34.253407
1986160203000, 186.8219, 169.58904, 34.253826
1986165199000, 186.83136, 169.58638, 34.256393
1986170200000, 186.83995, 169.58134, 34.254284
1986175190000, 186.8557, 169.57143, 34.248978
1986180188000, 186.86945, 169.56877, 34.246265
1986185192000, 186.8832, 169.56177, 34.23962
1986195163000, 186.89555, 169.5539, 34.236065
1986200214000, 186.90561, 169.54872, 34.228504
1986205196000, 186.91481, 169.54343, 34.22012
1986210194000, 186.92458, 169.53659, 34.21374
1986215194000, 186.93169, 169.53087, 34.207672
1986220198000, 186.93613, 169.52925, 34.200462
1986225542000, 186.94174, 169.52768, 34.197193
1986230188000, 186.94827, 169.53297, 34.197186
1986235183000, 186.94702, 169.5388, 34.18891
1986240193000, 186.94908, 169.54593, 34.185947
1986245180000, 186.94829, 169.5527, 34.18125
1986250238000, 186.9523, 169.5567, 34.177883
1986255161000, 186.95747, 169.55983, 34.172676
1986260195000, 186.95514, 169.56606, 34.16889
1986265212000, 186.96024, 169.5688, 34.169716
1986270199000, 186.9582, 169.57587, 34.16435
1986275190000, 186.96234, 169.57883, 34.163467
1986280187000, 186.96812, 169.58177, 34.161015
1986285199000, 186.9735, 169.588, 34.15858
1986290183000, 186.97751, 169.59077, 34.15677
1986295214000, 186.98746, 169.59058, 34.155376
1986300273000, 186.9911, 169.59358, 34.154507
1986305227000, 187.00049, 169.59225, 34.154686
1986310194000, 187.01027, 169.59058, 34.15417
1986315197000, 187.01833, 169.59099, 34.15623
1986320204000, 187.02827, 169.58759, 34.159317
1986325198000, 187.03844, 169.59013, 34.157806
1986330175000, 187.05463, 169.57576, 34.157276
1986335189000, 187.07442, 169.56046, 34.15845
1986340197000, 187.09016, 169.55318, 34.157154
1986345204000, 187.1088, 169.53484, 34.1564
1986350230000, 187.12096, 169.52493, 34.159187
1986355194000, 187.13257, 169.51251, 34.16357
1986361273000, 187.14117, 169.50012, 34.16183
1986365196000, 187.14465, 169.49306, 34.159294
1986370164000, 187.15195, 169.4778, 34.15578
1986375211000, 187.15797, 169.4704, 34.154484
1986380131000, 187.16196, 169.46045, 34.153397
1986385215000, 187.16646, 169.44443, 34.14873
1986390149000, 187.17224, 169.42805, 34.145702
1986395177000, 187.18164, 169.40994, 34.147846
1986400198000, 187.18855, 169.39528, 34.14796
1986405216000, 187.19014, 169.38315, 34.14842
1986410150000, 187.18936, 169.37393, 34.14874
1986415198000, 187.19157, 169.365, 34.146023
1986420185000, 187.1907, 169.35342, 34.14795
1986425189000, 187.18971, 169.35004, 34.148357
1986430202000, 187.1866, 169.34468, 34.151062
1986435230000, 187.18253, 169.33983, 34.153732
1986440279000, 187.18094, 169.336, 34.153374
1986445190000, 187.17345, 169.33394, 34.161007
1986450256000, 187.17024, 169.32841, 34.162327
1986455264000, 187.16179, 169.32909, 34.167366
1986460207000, 187.16092, 169.32343, 34.170036
1986465215000, 187.15051, 169.3246, 34.174873
1986470220000, 187.14919, 169.31989, 34.17901
1986475202000, 187.13855, 169.32385, 34.18462
1986480213000, 187.13208, 169.32181, 34.19054
1986485215000, 187.12572, 169.3231, 34.197113
1986490206000, 187.12073, 169.32056, 34.20032
1986495182000, 187.11157, 169.32536, 34.208622
1986500313000, 187.10927, 169.32883, 34.215218
1986505292000, 187.10538, 169.32832, 34.218838
1986510203000, 187.11116, 169.32614, 34.226208
1986515215000, 187.1087, 169.32652, 34.230545
1986520214000, 187.11285, 169.32324, 34.23549
1986525195000, 187.1174, 169.31952, 34.246864
1986530205000, 187.12393, 169.31578, 34.252075
1986535207000, 187.13033, 169.31067, 34.262905
1986540202000, 187.13725, 169.30421, 34.271492
1986545218000, 187.1344, 169.3108, 34.27996
1986550316000, 187.1356, 169.31227, 34.29135
1986555142000, 187.13687, 169.3089, 34.2976
1986560101000, 187.13895, 169.3067, 34.30533
1986565264000, 187.15092, 169.29828, 34.30619
1986570103000, 187.15884, 169.29034, 34.309933
1986575135000, 187.16818, 169.27942, 34.3087
1986580107000, 187.17566, 169.27611, 34.311527
1986585235000, 187.18437, 169.25993, 34.31246
1986590099000, 187.19072, 169.24753, 34.31389
1986595072000, 187.19785, 169.2366, 34.31548
1986600203000, 187.20032, 169.22687, 34.313564
1986605175000, 187.20572, 169.21552, 34.317806
1986610188000, 187.19533, 169.21216, 34.31346
1986615207000, 187.18723, 169.20586, 34.315094
1986620193000, 187.1734, 169.2074, 34.311184
1986625224000, 187.16028, 169.20293, 34.310467
1986630188000, 187.14575, 169.20247, 34.30789
1986635224000, 187.1306, 169.20001, 34.30741
1986640190000, 187.11206, 169.1997, 34.302475
1986645171000, 187.09766, 169.19693, 34.30337
1986650250000, 187.07854, 169.19583, 34.30093
1986655199000, 187.06255, 169.19493, 34.300262
1986660207000, 187.04285, 169.19403, 34.30395
1986665197000, 187.01862, 169.19588, 34.30171
1986670194000, 187.00217, 169.19553, 34.31213
1986675211000, 186.98628, 169.19579, 34.319984
1986680173000, 186.96681, 169.19977, 34.32356
1986685156000, 186.94917, 169.20213, 34.329258
1986690192000, 186.9357, 169.20354, 34.342743
1986695154000, 186.92203, 169.20627, 34.35776
1986700178000, 186.90451, 169.21046, 34.366817
1986705192000, 186.88771, 169.21788, 34.37761
1986710159000, 186.87625, 169.21573, 34.386776
1986715206000, 186.86394, 169.21507, 34.39403
1986720128000, 186.85349, 169.21292, 34.401726
1986725212000, 186.84094, 169.21214, 34.4074
1986730162000, 186.82509, 169.20877, 34.4145
1986735201000, 186.80627, 169.20882, 34.423756
1986740164000, 186.7948, 169.20128, 34.431824
1986745176000, 186.78958, 169.19264, 34.442566
1986750319000, 186.7811, 169.1873, 34.445843
1986755132000, 186.77312, 169.18384, 34.44852
1986760051000, 186.77077, 169.17178, 34.45059
1986765151000, 186.7665, 169.1637, 34.449436
1986770232000, 186.75896, 169.15662, 34.452843
1986775096000, 186.76146, 169.14697, 34.450176
1986780335000, 186.76077, 169.13531, 34.44298
1986785101000, 186.76157, 169.12355, 34.440125
1986790375000, 186.7619, 169.1171, 34.43526
1986795076000, 186.76128, 169.10814, 34.434265
1986800600000, 186.76471, 169.10246, 34.42981
1986805194000, 186.7701, 169.09612, 34.430794
1986810133000, 186.76633, 169.08939, 34.421886
1986815199000, 186.76344, 169.08543, 34.416927
1986820158000, 186.75916, 169.07745, 34.408764
1986825202000, 186.75775, 169.0716, 34.40017
1986830219000, 186.75703, 169.06796, 34.391953
1986835198000, 186.75044, 169.06737, 34.38631
1986840155000, 186.74728, 169.06435, 34.37874
1986845191000, 186.74146, 169.06529, 34.37414
1986850271000, 186.73477, 169.06386, 34.368298
1986855229000, 186.73103, 169.06305, 34.365322
1986860207000, 186.72115, 169.0667, 34.362396
1986865205000, 186.71848, 169.07166, 34.35816
1986870197000, 186.71495, 169.075, 34.35292
1986875193000, 186.71477, 169.07864, 34.35366
1986880191000, 186.7144, 169.08086, 34.356335
1986885200000, 186.71515, 169.0825, 34.354893
1986890196000, 186.7156, 169.08511, 34.35295
1986900251000, 186.7204, 169.08658, 34.359253
1986905228000, 186.72359, 169.08844, 34.36091
1986910192000, 186.72469, 169.09293, 34.363567
1986915249000, 186.7217, 169.10132, 34.372215
1986920192000, 186.71791, 169.10916, 34.380398
1986925195000, 186.71304, 169.11707, 34.385635
1986930194000, 186.70946, 169.12523, 34.3948
1986935588000, 186.70789, 169.13013, 34.39634
1986940188000, 186.7026, 169.13773, 34.400925
1986945178000, 186.70154, 169.1434, 34.403038
1986950258000, 186.69858, 169.14714, 34.408257
1986955194000, 186.69092, 169.15553, 34.40778
1986960188000, 186.68416, 169.16171, 34.412197
1986965893000, 186.67966, 169.16747, 34.410717
1986970193000, 186.68376, 169.16908, 34.417664
1986975192000, 186.6811, 169.1735, 34.419548
1986980188000, 186.6839, 169.17728, 34.423084
1986985231000, 186.68474, 169.18114, 34.427986
1986990192000, 186.6928, 169.17696, 34.429543
1986995196000, 186.69821, 169.18002, 34.432793
1987000480000, 186.70087, 169.17892, 34.425938
1987010187000, 186.70125, 169.17719, 34.426136
1987015292000, 186.69672, 169.17926, 34.415848
1987021183000, 186.69891, 169.18178, 34.40782
1987025204000, 186.69473, 169.1877, 34.396496
1987030334000, 186.6923, 169.18771, 34.38617
1987035249000, 186.6864, 169.19232, 34.37525
1987045201000, 186.6823, 169.19232, 34.365875
1987050268000, 186.6783, 169.19856, 34.3643
1987055179000, 186.6724, 169.2091, 34.364178
1987060261000, 186.67091, 169.21135, 34.36599
1987065209000, 186.6631, 169.2293, 34.36811
1987075201000, 186.65822, 169.23863, 34.369953
1987080211000, 186.65836, 169.25227, 34.371746
1987085200000, 186.66496, 169.25893, 34.375446
1987095167000, 186.6639, 169.27203, 34.376213
1987100252000, 186.66931, 169.27802, 34.37844
1987105207000, 186.67288, 169.29134, 34.38208
1987110209000, 186.67857, 169.29645, 34.385128
1987115215000, 186.6899, 169.29921, 34.390045
1987120196000, 186.70001, 169.30455, 34.39277
1987125187000, 186.7128, 169.30557, 34.39821
1987130187000, 186.72426, 169.30995, 34.407425
1987135199000, 186.74411, 169.30904, 34.40754
1987140192000, 186.7565, 169.31131, 34.413292
1987145199000, 186.77318, 169.30888, 34.412983
1987150217000, 186.78981, 169.31136, 34.41814
1987155488000, 186.79482, 169.30574, 34.4157
1987160187000, 186.80672, 169.30356, 34.417473
1987165194000, 186.81236, 169.30276, 34.414272
1987170198000, 186.82088, 169.29547, 34.414585
1987175551000, 186.83147, 169.29144, 34.411823
1987180195000, 186.83917, 169.28653, 34.40975
1987185179000, 186.84392, 169.28333, 34.406246
1987190196000, 186.8516, 169.27742, 34.40186
1987195167000, 186.85457, 169.27733, 34.397823
1987200260000, 186.8605, 169.26927, 34.39722
1987205236000, 186.86334, 169.26772, 34.393414
1987210195000, 186.86728, 169.25996, 34.389675
1987215237000, 186.87279, 169.2564, 34.38615
1987220197000, 186.8736, 169.25296, 34.382862
1987225211000, 186.88339, 169.24704, 34.377342
1987230196000, 186.8828, 169.2455, 34.372746
1987235199000, 186.8894, 169.23961, 34.366688
1987240195000, 186.8919, 169.23663, 34.362194
1987245188000, 186.896, 169.23001, 34.356606
1987250240000, 186.89471, 169.22879, 34.350933
1987255194000, 186.89992, 169.22287, 34.3469
1987260200000, 186.902, 169.22043, 34.347183
1987265194000, 186.90933, 169.21564, 34.34682
1987270173000, 186.91603, 169.2139, 34.35236
1987275206000, 186.92413, 169.21361, 34.35524
1987280161000, 186.93321, 169.21536, 34.361465
1987285199000, 186.9417, 169.2132, 34.36498
1987290162000, 186.95648, 169.21117, 34.3708
1987295190000, 186.97343, 169.20363, 34.375317
1987300207000, 186.98738, 169.2012, 34.37917
1987305112000, 187.00636, 169.19449, 34.383522
1987310095000, 187.02252, 169.19037, 34.387764
1987315145000, 187.0383, 169.1837, 34.393425
1987320101000, 187.05551, 169.17918, 34.396183
1987325097000, 187.07047, 169.17343, 34.400105
1987330679000, 187.08995, 169.1644, 34.40842
1987335104000, 187.10274, 169.16087, 34.408314
1987340100000, 187.12271, 169.14928, 34.415276
1987345103000, 187.13594, 169.14528, 34.414345
1987350189000, 187.15056, 169.13393, 34.411694
1987355190000, 187.1575, 169.12881, 34.41557
1987360206000, 187.16234, 169.12346, 34.417862
1987365239000, 187.16957, 169.11479, 34.416714
1987370195000, 187.17755, 169.10556, 34.416264
1987375208000, 187.18362, 169.09357, 34.417545
1987380189000, 187.19159, 169.08093, 34.413734
1987390187000, 187.19748, 169.07536, 34.414776
1987395165000, 187.203, 169.06262, 34.413445
1987400218000, 187.20937, 169.0538, 34.40879
1987405191000, 187.21817, 169.04102, 34.410095
1987410201000, 187.22319, 169.0343, 34.408203
1987415895000, 187.23245, 169.02206, 34.40531
1987420200000, 187.2404, 169.0105, 34.403313
1987425130000, 187.24265, 169.003, 34.40282
1987430192000, 187.24281, 168.99385, 34.40013
1987435141000, 187.24524, 168.98596, 34.40003
1987440196000, 187.24078, 168.98032, 34.392334
1987445189000, 187.2368, 168.97197, 34.390656
1987450240000, 187.2322, 168.96646, 34.38344
1987455182000, 187.23099, 168.9576, 34.38047
1987460193000, 187.21707, 168.95287, 34.374928
1987465280000, 187.20883, 168.94682, 34.372253
1987470195000, 187.19823, 168.94142, 34.371536
1987475190000, 187.18527, 168.93924, 34.365967
1987480190000, 187.17194, 168.9411, 34.367058
1987485201000, 187.15752, 168.94447, 34.366077
1987490195000, 187.14902, 168.94568, 34.36832
1987495170000, 187.13641, 168.9491, 34.37015
1987500273000, 187.12689, 168.94739, 34.372524
1987505278000, 187.11736, 168.9472, 34.376812
1987510193000, 187.11685, 168.9436, 34.381718
1987515260000, 187.11452, 168.94193, 34.388885
1987520197000, 187.12521, 168.93657, 34.391792
1987525186000, 187.131, 168.93388, 34.394627
1987530164000, 187.1442, 168.92308, 34.39637
1987535228000, 187.1542, 168.91745, 34.396908
1987540194000, 187.16147, 168.91072, 34.39858
1987545195000, 187.17107, 168.90424, 34.3987
1987550244000, 187.17963, 168.8942, 34.404373
1987555192000, 187.18274, 168.89072, 34.4074
1987560192000, 187.18896, 168.88145, 34.41393
1987565197000, 187.19493, 168.87257, 34.416214
1987570169000, 187.19737, 168.87074, 34.416824
1987575191000, 187.202, 168.85893, 34.41711
1987580130000, 187.20842, 168.85579, 34.41927
1987585172000, 187.21019, 168.84982, 34.418293
1987590154000, 187.21461, 168.84131, 34.41588
1987595181000, 187.21793, 168.83144, 34.40758
1987600288000, 187.2214, 168.82341, 34.40424
1987605253000, 187.23021, 168.81012, 34.3971
1987610308000, 187.23503, 168.79675, 34.39113
1987615205000, 187.23933, 168.7869, 34.37855
1987620262000, 187.2404, 168.77155, 34.368996
1987625189000, 187.24484, 168.75862, 34.361496
1987630249000, 187.24632, 168.74783, 34.35563
1987635201000, 187.25159, 168.73424, 34.3504
1987640324000, 187.25153, 168.72578, 34.34592
1987645205000, 187.25464, 168.71625, 34.339943
1987650237000, 187.25792, 168.70709, 34.340553
1987655235000, 187.26349, 168.69595, 34.340263
1987660179000, 187.26486, 168.68607, 34.33585
1987665192000, 187.26584, 168.6736, 34.337234
1987670197000, 187.2699, 168.65727, 34.332478
1987675188000, 187.2694, 168.64116, 34.329437
1987680194000, 187.27637, 168.62117, 34.328217
1987685165000, 187.26584, 168.61087, 34.32733
1987690184000, 187.25848, 168.59981, 34.33349
1987695172000, 187.2545, 168.58965, 34.341908
1987700204000, 187.2489, 168.58292, 34.354206
1987705157000, 187.24667, 168.58028, 34.363525
1987710157000, 187.2449, 168.5716, 34.3725
1987715168000, 187.24626, 168.56284, 34.38382
1987720210000, 187.25163, 168.55383, 34.39136
1987725179000, 187.25351, 168.54474, 34.396454
1987730211000, 187.25514, 168.53606, 34.404243
1987735174000, 187.25745, 168.53107, 34.412643
1987740214000, 187.26324, 168.52293, 34.419376
1987745198000, 187.26666, 168.51695, 34.428432
1987750304000, 187.26965, 168.51035, 34.437214
1987755100000, 187.28151, 168.49255, 34.43307
1987760096000, 187.2944, 168.47916, 34.4343
1987765150000, 187.30127, 168.4639, 34.43378
1987775094000, 187.30522, 168.4537, 34.426773
1987780102000, 187.31845, 168.43806, 34.430656
1987785099000, 187.32614, 168.42392, 34.4293
1987790097000, 187.33635, 168.40579, 34.42897
1987795075000, 187.34273, 168.39487, 34.425407
1987800275000, 187.352, 168.37749, 34.423428
1987805130000, 187.35857, 168.36276, 34.419968
1987810186000, 187.36476, 168.3489, 34.414318
1987815194000, 187.36978, 168.3389, 34.407993
1987820199000, 187.37512, 168.3292, 34.401005
1987825177000, 187.3787, 168.3189, 34.393944
1987830190000, 187.38304, 168.3129, 34.387432
1987835199000, 187.38805, 168.30075, 34.381172
1987840205000, 187.39438, 168.29062, 34.369907
1987845216000, 187.40506, 168.27557, 34.359657
1987850256000, 187.41103, 168.2657, 34.34843
1987855189000, 187.41896, 168.25287, 34.338158
1987860194000, 187.42473, 168.24217, 34.329468
1987865224000, 187.43295, 168.22957, 34.318745
1987870199000, 187.44154, 168.22076, 34.308838
1987875188000, 187.44945, 168.20975, 34.297417
1987880161000, 187.45969, 168.20064, 34.2924
1987885204000, 187.46695, 168.19345, 34.28456
1987890194000, 187.47841, 168.18169, 34.278633
1987895170000, 187.49135, 168.16734, 34.271088
1987900248000, 187.50127, 168.15883, 34.267982
1987905196000, 187.51477, 168.14685, 34.26583
1987910193000, 187.53172, 168.13504, 34.263405
1987915192000, 187.54208, 168.12524, 34.261818
1987920200000, 187.53993, 168.12018, 34.2597
1987925187000, 187.53491, 168.11667, 34.26185
1987930165000, 187.52914, 168.11356, 34.25621
1987935198000, 187.52893, 168.1094, 34.25903
1987940176000, 187.52763, 168.11061, 34.25461
1987945192000, 187.52718, 168.11017, 34.251617
1987950261000, 187.52888, 168.10924, 34.248577
1987955230000, 187.52902, 168.10793, 34.244255
1987960130000, 187.52904, 168.10875, 34.24622
1987965263000, 187.52681, 168.11047, 34.24602
1987970248000, 187.52255, 168.11092, 34.24174
1987975193000, 187.52007, 168.10907, 34.239685
1987980162000, 187.5149, 168.10942, 34.233784
1987990158000, 187.51256, 168.10736, 34.223587
1987995204000, 187.5077, 168.10313, 34.218956
1988000571000, 187.5026, 168.10347, 34.21309
1988005216000, 187.49814, 168.0987, 34.206566
1988010507000, 187.49203, 168.09503, 34.19859
1988015225000, 187.48682, 168.09296, 34.193764
1988020197000, 187.48859, 168.08055, 34.187565
1988025224000, 187.48882, 168.07089, 34.17504
1988030156000, 187.48927, 168.05931, 34.169483
1988035268000, 187.4909, 168.0508, 34.15707
1988040124000, 187.49323, 168.04164, 34.145752
1988045169000, 187.4992, 168.0335, 34.134018
1988050216000, 187.5022, 168.02438, 34.11914
1988055194000, 187.50854, 168.01495, 34.109825
1988060300000, 187.51205, 168.00764, 34.0984
1988065171000, 187.51498, 168.00032, 34.094124
1988070395000, 187.52182, 167.99164, 34.09211
1988075158000, 187.52623, 167.98552, 34.089767
1988080211000, 187.53267, 167.97733, 34.0822
1988085234000, 187.54236, 167.9707, 34.083843
1988090162000, 187.55132, 167.96213, 34.08012
1988095177000, 187.56079, 167.9568, 34.081898
1988100319000, 187.5654, 167.95682, 34.0793
1988105105000, 187.57103, 167.95583, 34.08365
1988110101000, 187.57971, 167.9546, 34.083786
1988115142000, 187.58786, 167.95245, 34.088528
1988120122000, 187.59819, 167.9493, 34.09116
1988125119000, 187.60916, 167.94762, 34.09507
1988130117000, 187.61989, 167.94135, 34.100773
1988135119000, 187.62938, 167.93512, 34.10036
1988140104000, 187.642, 167.92955, 34.108715
1988145111000, 187.65016, 167.92633, 34.109947
1988150149000, 187.6613, 167.9207, 34.11452
1988155120000, 187.67026, 167.91454, 34.119858
1988160111000, 187.68149, 167.90746, 34.124527
1988165148000, 187.69237, 167.89949, 34.131992
1988170122000, 187.70044, 167.8908, 34.136696
1988175118000, 187.71106, 167.88441, 34.14515
1988180237000, 187.72743, 167.87863, 34.14779
1988185206000, 187.74234, 167.86957, 34.152798
1988190174000, 187.75179, 167.86755, 34.15881
1988195167000, 187.76077, 167.86218, 34.16786
1988200251000, 187.76944, 167.85605, 34.170444
1988205198000, 187.77217, 167.85661, 34.1727
1988210183000, 187.78061, 167.84734, 34.178482
1988215192000, 187.78452, 167.8474, 34.1819
1988220189000, 187.78703, 167.8413, 34.185875
1988225190000, 187.7985, 167.83543, 34.193382
1988230190000, 187.80014, 167.82893, 34.19377
1988235170000, 187.8036, 167.82005, 34.189476
1988240126000, 187.80655, 167.813, 34.19111
1988245204000, 187.81258, 167.80365, 34.190456
1988250685000, 187.82114, 167.79417, 34.187588
1988255195000, 187.83313, 167.77795, 34.184696
1988260373000, 187.8373, 167.76662, 34.179794
1988265201000, 187.84535, 167.74945, 34.177303
1988270184000, 187.84593, 167.73845, 34.16911
1988275188000, 187.84367, 167.72661, 34.159023
1988280230000, 187.84793, 167.71327, 34.150578
1988285172000, 187.84879, 167.70285, 34.14122
1988290177000, 187.84773, 167.69493, 34.127907
1988300268000, 187.8495, 167.68329, 34.11986
1988305210000, 187.85127, 167.67273, 34.10812
1988310215000, 187.85037, 167.66849, 34.100357
1988315212000, 187.84593, 167.66557, 34.095173
1988320259000, 187.8423, 167.66261, 34.085773
1988325214000, 187.83109, 167.66696, 34.07927
1988330206000, 187.82236, 167.66765, 34.068718
1988335185000, 187.8125, 167.67502, 34.060905
1988340204000, 187.80055, 167.67952, 34.05319
1988345180000, 187.78867, 167.6821, 34.039993
1988350246000, 187.77985, 167.68575, 34.031143
1988355225000, 187.77963, 167.69144, 34.02209
1988360217000, 187.77498, 167.70119, 34.0116
1988365232000, 187.77673, 167.7066, 34.00326
1988370234000, 187.78232, 167.71217, 34.002583
1988375214000, 187.78033, 167.71886, 33.99609
1988380171000, 187.78766, 167.72557, 33.995266
1988385161000, 187.789, 167.72998, 33.9956
1988390189000, 187.79306, 167.73552, 33.992096
1988395531000, 187.79974, 167.74525, 33.993702
1988400241000, 187.80756, 167.75575, 33.99238
1988405162000, 187.81104, 167.76515, 33.997578
1988410194000, 187.812, 167.77878, 33.99593
1988415182000, 187.81331, 167.7815, 34.002754
1988420192000, 187.81868, 167.78452, 34.009495
1988425189000, 187.8168, 167.78944, 34.01048
1988430194000, 187.82121, 167.78833, 34.012077
1988435204000, 187.83035, 167.79146, 34.014015
1988440189000, 187.83559, 167.79817, 34.01361
1988445167000, 187.84642, 167.7955, 34.012966
1988450303000, 187.8531, 167.79881, 34.011425
1988455542000, 187.86009, 167.80174, 34.009113
1988460220000, 187.86777, 167.80392, 34.00722
1988465226000, 187.8804, 167.79085, 34.002064
1988470232000, 187.89572, 167.7801, 34.000374
1988475157000, 187.90964, 167.76726, 33.99789
1988480189000, 187.92258, 167.7561, 33.993797
1988485174000, 187.93938, 167.73653, 33.98722
1988490196000, 187.95184, 167.71924, 33.983665
1988495162000, 187.96721, 167.7033, 33.976875
1988500279000, 187.9748, 167.68445, 33.974922
1988505539000, 187.98506, 167.66818, 33.97103
1988510187000, 187.98653, 167.65457, 33.97119
1988515188000, 187.99022, 167.6351, 33.97186
1988520221000, 187.99248, 167.61934, 33.971912
1988525126000, 187.9951, 167.60257, 33.971188
1988530186000, 188.00124, 167.5835, 33.97373
1988535188000, 188.00626, 167.566, 33.974964
1988540202000, 188.01996, 167.53578, 33.97354
1988545237000, 188.03395, 167.50847, 33.972317
1988550209000, 188.046, 167.47963, 33.970127
1988555215000, 188.05476, 167.44801, 33.972286
1988560188000, 188.066, 167.42131, 33.969883
1988565243000, 188.07755, 167.39459, 33.96994
1988570203000, 188.08266, 167.37032, 33.965908
1988575190000, 188.09134, 167.34467, 33.962914
1988580159000, 188.10437, 167.319, 33.96326
1988585200000, 188.11273, 167.29814, 33.962185
1988590190000, 188.12189, 167.27458, 33.96177
1988595165000, 188.13228, 167.25285, 33.962948
1988600251000, 188.1489, 167.22966, 33.963757
1988605214000, 188.16609, 167.20451, 33.965633
1988610191000, 188.17107, 167.18445, 33.971622
1988615201000, 188.1849, 167.16183, 33.973625
1988620199000, 188.19345, 167.14194, 33.983093
1988625188000, 188.20573, 167.11986, 33.98613
1988630163000, 188.21255, 167.10442, 33.993088
1988635197000, 188.21904, 167.09013, 33.99825
1988640168000, 188.22827, 167.0743, 34.00273
1988645196000, 188.23317, 167.06078, 34.007874
1988650212000, 188.24792, 167.0428, 34.0088
1988655196000, 188.26146, 167.02396, 34.01029
1988660148000, 188.278, 167.00806, 34.007446
1988665219000, 188.29442, 166.99179, 34.007843
1988670159000, 188.30939, 166.97775, 34.0045
1988675191000, 188.32507, 166.96227, 34.004208
1988680188000, 188.33618, 166.94414, 34.000942
1988685269000, 188.34825, 166.92444, 33.998333
1988690200000, 188.35635, 166.91003, 33.996807
1988695161000, 188.363, 166.89352, 33.998272
1988700242000, 188.36604, 166.8784, 33.989944
1988705230000, 188.37122, 166.86157, 33.9847
1988710183000, 188.37273, 166.84708, 33.978565
1988715203000, 188.37381, 166.83542, 33.967632
1988720159000, 188.36958, 166.82883, 33.96028
1988725191000, 188.36674, 166.81825, 33.94977
1988730193000, 188.36649, 166.80962, 33.940784
1988735194000, 188.3598, 166.8067, 33.938007
1988740181000, 188.3553, 166.8002, 33.933556
1988745195000, 188.35378, 166.79501, 33.93265
1988750341000, 188.3463, 166.7904, 33.928246
1988755213000, 188.34605, 166.78844, 33.919968
1988760193000, 188.33994, 166.78464, 33.911396
1988765226000, 188.3311, 166.79, 33.906307
1988770231000, 188.32199, 166.79199, 33.89934
1988775190000, 188.31732, 166.79825, 33.89242
1988780166000, 188.31348, 166.80016, 33.88535
1988785199000, 188.31212, 166.80214, 33.880768
1988790189000, 188.31033, 166.80525, 33.87312
1988795169000, 188.3114, 166.80582, 33.865894
1988800298000, 188.31375, 166.80653, 33.858486
1988805285000, 188.31827, 166.80724, 33.85264
1988810192000, 188.32246, 166.8072, 33.845036
1988815174000, 188.32402, 166.80614, 33.83943
1988820227000, 188.32516, 166.8073, 33.82692
1988825164000, 188.32927, 166.80475, 33.823284
1988830191000, 188.33238, 166.80238, 33.81208
1988835521000, 188.33546, 166.80286, 33.809097
1988840194000, 188.33965, 166.79614, 33.804268
1988845971000, 188.34827, 166.80052, 33.797253
1988850260000, 188.35822, 166.79845, 33.789852
1988855437000, 188.36974, 166.7944, 33.78494
1988860194000, 188.38092, 166.79, 33.775757
1988865749000, 188.3873, 166.792, 33.769573
1988870203000, 188.39247, 166.7922, 33.75968
1988875528000, 188.39644, 166.795, 33.751705
1988880168000, 188.40125, 166.79442, 33.746586
1988885164000, 188.407, 166.79387, 33.73673
1988890222000, 188.41245, 166.79297, 33.732277
1988895173000, 188.41458, 166.79112, 33.725605
1988900208000, 188.41621, 166.79349, 33.720364
1988905162000, 188.41771, 166.79486, 33.717995
1988910211000, 188.41423, 166.7978, 33.710396
1988915177000, 188.4126, 166.80225, 33.708214
1988920203000, 188.41287, 166.80315, 33.702152
1988925130000, 188.41704, 166.80255, 33.700882
1988930190000, 188.41994, 166.80238, 33.698902
1988935163000, 188.42746, 166.7972, 33.696705
1988940196000, 188.43124, 166.7963, 33.698906
1988945186000, 188.43747, 166.79456, 33.696217
1988950497000, 188.44287, 166.79013, 33.700176
1988955185000, 188.44899, 166.7923, 33.703373
1988960316000, 188.45415, 166.78856, 33.704075
1988965267000, 188.4576, 166.78555, 33.70131
1988970217000, 188.46065, 166.7874, 33.703735
1988975168000, 188.4626, 166.78746, 33.703175
1988980327000, 188.46635, 166.78787, 33.707462
1988985255000, 188.47327, 166.78853, 33.71182
1988990185000, 188.47365, 166.79314, 33.715137
1988995224000, 188.4797, 166.79453, 33.718384
1989000287000, 188.4809, 166.79941, 33.719753
1989005203000, 188.48663, 166.80037, 33.72418
1989010350000, 188.49367, 166.79926, 33.73005
1989015260000, 188.49997, 166.80096, 33.73475
1989020453000, 188.50285, 166.80319, 33.745605
1989025173000, 188.50175, 166.80673, 33.752586
1989030595000, 188.50111, 166.81442, 33.761257
1989035245000, 188.50343, 166.81454, 33.769596
1989040484000, 188.50575, 166.81958, 33.77647
1989045225000, 188.50482, 166.82063, 33.780983
1989050923000, 188.50812, 166.8207, 33.790005
1989055112000, 188.50375, 166.82152, 33.795845
1989060080000, 188.50273, 166.82222, 33.80501
1989065150000, 188.50452, 166.8187, 33.810627
1989070078000, 188.50128, 166.81967, 33.81667
1989075100000, 188.51067, 166.8135, 33.81922
1989080087000, 188.51532, 166.81409, 33.822323
1989085084000, 188.5222, 166.80728, 33.82289
1989090081000, 188.529, 166.80519, 33.824993
1989095112000, 188.53346, 166.80495, 33.825176
1989100141000, 188.5357, 166.80591, 33.827957
1989105071000, 188.54434, 166.80028, 33.825573
1989110071000, 188.54749, 166.80275, 33.8265
1989115120000, 188.5592, 166.7925, 33.82423
1989120071000, 188.57297, 166.78429, 33.821194
1989125068000, 188.58614, 166.77713, 33.815918
1989130106000, 188.60219, 166.77023, 33.812756
1989135070000, 188.61671, 166.7635, 33.804787
1989140073000, 188.62315, 166.76004, 33.800007
1989145116000, 188.64105, 166.75206, 33.794594
1989150134000, 188.65219, 166.74902, 33.79243
1989155072000, 188.66142, 166.74245, 33.78471
1989160066000, 188.66792, 166.74129, 33.779205
1989165101000, 188.68257, 166.72403, 33.770874
1989170069000, 188.69315, 166.7127, 33.75902
1989175071000, 188.70488, 166.69798, 33.755894
1989180107000, 188.71237, 166.68613, 33.7466
1989185076000, 188.72005, 166.66986, 33.738228
1989190067000, 188.72466, 166.6594, 33.72887
1989195077000, 188.73701, 166.64139, 33.71414
1989200157000, 188.74757, 166.62817, 33.700752
1989205071000, 188.76114, 166.61002, 33.688286
1989210067000, 188.7748, 166.59471, 33.674522
1989215117000, 188.78857, 166.57838, 33.66385
1989220071000, 188.81023, 166.56451, 33.655334
1989225096000, 188.81554, 166.5501, 33.642532
1989230098000, 188.824, 166.53903, 33.636063
1989235070000, 188.83902, 166.52548, 33.63052
1989240094000, 188.84622, 166.51497, 33.628483
1989245105000, 188.85931, 166.50601, 33.62408
1989250145000, 188.87077, 166.49509, 33.621387
1989255054000, 188.88046, 166.4842, 33.619446
1989260097000, 188.89105, 166.47505, 33.615894
1989265088000, 188.9019, 166.46196, 33.611538
1989270096000, 188.90703, 166.4541, 33.60354
1989275038000, 188.91931, 166.44061, 33.599274
1989280097000, 188.92586, 166.42955, 33.595547
1989285073000, 188.93117, 166.42612, 33.595287
1989290102000, 188.93062, 166.41992, 33.594463
1989295071000, 188.92647, 166.42107, 33.59558
1989300160000, 188.92462, 166.42307, 33.59862
1989305160000, 188.91904, 166.42955, 33.603687
1989310137000, 188.91682, 166.43456, 33.61197
1989315143000, 188.91006, 166.44225, 33.61699
1989320173000, 188.90741, 166.44571, 33.619827
1989325142000, 188.90489, 166.44487, 33.626427
1989330108000, 188.90271, 166.44308, 33.630516
1989340137000, 188.90495, 166.44682, 33.637054
1989345135000, 188.9062, 166.44955, 33.644478
1989350248000, 188.90501, 166.44785, 33.652115
1989355166000, 188.89954, 166.44965, 33.655663
1989360191000, 188.89772, 166.45018, 33.66365
1989365211000, 188.8894, 166.44954, 33.661304
1989370196000, 188.885, 166.45096, 33.66641
1989375167000, 188.88033, 166.44908, 33.669716
1989380162000, 188.87247, 166.45183, 33.670635
1989385159000, 188.87057, 166.44997, 33.67228
1989390189000, 188.86371, 166.4504, 33.67585
1989395167000, 188.85959, 166.44858, 33.67707
1989400306000, 188.85764, 166.44757, 33.682407
1989405223000, 188.85158, 166.44495, 33.686043
1989410194000, 188.85394, 166.4427, 33.69329
1989415175000, 188.84946, 166.44203, 33.696133
1989420166000, 188.84525, 166.44316, 33.70228
1989425186000, 188.8436, 166.44073, 33.70561
1989430167000, 188.84468, 166.43983, 33.710007
1989435196000, 188.8402, 166.44176, 33.71689
1989440192000, 188.84492, 166.4405, 33.718494
1989445193000, 188.84549, 166.44427, 33.723038
1989450272000, 188.84546, 166.44545, 33.725315
1989455204000, 188.8527, 166.44292, 33.72896
1989460193000, 188.85104, 166.44745, 33.729355
1989465210000, 188.85544, 166.44525, 33.735237
1989470196000, 188.85661, 166.44867, 33.73841
1989475184000, 188.86005, 166.44858, 33.74259
1989480161000, 188.86827, 166.44235, 33.75134
1989485197000, 188.87335, 166.44005, 33.762054
1989490195000, 188.87646, 166.43585, 33.7673
1989495168000, 188.87965, 166.43506, 33.773865
1989500230000, 188.87941, 166.4368, 33.7783
1989505276000, 188.8806, 166.4346, 33.782326
1989515222000, 188.88188, 166.43468, 33.785515
1989520199000, 188.88422, 166.43515, 33.78859
1989525189000, 188.88533, 166.43442, 33.790703
1989530148000, 188.88069, 166.4398, 33.79227
1989535197000, 188.87526, 166.44547, 33.793617
1989540167000, 188.86784, 166.44876, 33.799606
1989545184000, 188.86263, 166.4508, 33.80528
1989550255000, 188.85892, 166.45625, 33.8111
1989560124000, 188.85292, 166.45721, 33.819847
1989565244000, 188.85083, 166.45949, 33.825714
1989570153000, 188.84616, 166.4601, 33.83273
1989575189000, 188.84665, 166.45778, 33.84053
1989580207000, 188.84317, 166.45818, 33.846672
1989585197000, 188.84348, 166.45207, 33.852467
1989590190000, 188.84024, 166.45152, 33.853657
1989595165000, 188.84213, 166.44838, 33.85859
1989600435000, 188.83795, 166.44647, 33.85803
1989605233000, 188.84048, 166.44655, 33.86286
1989610126000, 188.84143, 166.44408, 33.863758
1989615200000, 188.8366, 166.4458, 33.86099
1989620200000, 188.83453, 166.44629, 33.856014
1989625186000, 188.8328, 166.44577, 33.853508
1989630163000, 188.83144, 166.44339, 33.854843
1989635169000, 188.82962, 166.44556, 33.850876
1989640195000, 188.82664, 166.44223, 33.848827
1989645191000, 188.82596, 166.44264, 33.85188
1989650278000, 188.82558, 166.44144, 33.850285
